Data from HR4D30811__9__00009.txt Node

Date: Fri Jan 26 16:32:38 MST 2024
User: Brock
Spectrometer: HR4D3081
Trigger mode: 4
Integration Time (sec): 8.000000E0
Scans to average: 1
Electric dark correction enabled: true
Nonlinearity correction enabled: false
Boxcar width: 0
XAxis mode: Wavelengths
Number of Pixels in Spectrum: 3648
>>>>>Begin Spectral Data<<<<<
197.25	-1201.85
197.385	-1201.85
197.519	-1201.85
197.653	-1225.85
197.787	194.15
197.922	-131.85
198.056	81.15
198.19	17.15
198.324	23.15
198.459	-217.85
198.593	445.15
198.727	-36.85
198.861	-79.85
198.996	189.15
199.13	-291.85
199.264	-198.85
199.398	-62.85
199.533	264.15
199.667	116.15
199.801	-60.85
199.935	-267.85
200.07	4.15
200.204	-10.85
200.338	-166.85
200.472	-174.85
200.606	-314.85
200.741	-151.85
200.875	-118.85
201.009	-111.85
201.143	-225.85
201.277	104.15
201.412	76.15
201.546	255.15
201.68	150.15
201.814	-163.85
201.948	51.15
202.082	-81.85
202.217	-307.85
202.351	-151.85
202.485	-42.85
202.619	-235.85
202.753	-353.85
202.887	291.15
203.021	99.15
203.156	202.15
203.29	39.15
203.424	-32.85
203.558	-187.85
203.692	-64.85
203.826	-286.85
203.96	-76.85
204.094	164.15
204.229	-167.85
204.363	-208.85
204.497	-311.85
204.631	-297.85
204.765	-217.85
204.899	-138.85
205.033	-146.85
205.167	-239.85
205.301	21.15
205.435	-306.85
205.569	-92.85
205.704	-70.85
205.838	-313.85
205.972	-150.85
206.106	526.15
206.24	-136.85
206.374	-219.85
206.508	-3.85
206.642	37.15
206.776	-105.85
206.91	192.15
207.044	9.15
207.178	82.15
207.312	-10.85
207.446	-155.85
207.58	-151.85
207.714	-244.85
207.848	150.15
207.982	-374.85
208.116	44.15
208.25	-227.85
208.384	-158.85
208.518	-169.85
208.652	-230.85
208.786	-267.85
208.92	196.15
209.054	-55.85
209.188	-287.85
209.322	-120.85
209.456	-134.85
209.59	-275.85
209.724	-53.85
209.858	-27.85
209.992	-103.85
210.126	-169.85
210.26	-156.85
210.394	-91.85
210.528	-31.85
210.662	-202.85
210.796	-149.85
210.929	125.15
211.063	-3.85
211.197	-49.85
211.331	0.15
211.465	-224.85
211.599	60.15
211.733	124.15
211.867	-222.85
212.001	-198.85
212.135	-52.85
212.269	-220.85
212.402	-217.85
212.536	76.15
212.67	-127.85
212.804	-246.85
212.938	75.15
213.072	-218.85
213.206	-98.85
213.34	-183.85
213.473	-158.85
213.607	100.15
213.741	-279.85
213.875	-269.85
214.009	-230.85
214.143	-165.85
214.277	-139.85
214.41	-215.85
214.544	261.15
214.678	131.15
214.812	276.15
214.946	-255.85
215.08	-187.85
215.213	-207.85
215.347	-115.85
215.481	-69.85
215.615	-339.85
215.749	1.15
215.882	-228.85
216.016	-299.85
216.15	80.15
216.284	191.15
216.418	2.15
216.551	117.15
216.685	9.15
216.819	-258.85
216.953	-160.85
217.086	242.15
217.22	-179.85
217.354	-35.85
217.488	80.15
217.621	97.15
217.755	-36.85
217.889	-145.85
218.023	-71.85
218.156	85.15
218.29	32.15
218.424	166.15
218.558	-267.85
218.691	-382.85
218.825	-120.85
218.959	395.15
219.092	-107.85
219.226	-322.85
219.36	-298.85
219.494	-76.85
219.627	-182.85
219.761	-205.85
219.895	-97.85
220.028	-310.85
220.162	494.15
220.296	138.15
220.429	-15.85
220.563	-58.85
220.697	-27.85
220.83	-224.85
220.964	-176.85
221.098	-271.85
221.231	-236.85
221.365	76.15
221.499	-232.85
221.632	-233.85
221.766	-12.85
221.9	-91.85
222.033	74.15
222.167	94.15
222.3	-212.85
222.434	-46.85
222.568	275.15
222.701	-160.85
222.835	-126.85
222.968	-234.85
223.102	-217.85
223.236	-267.85
223.369	5.15
223.503	8.15
223.636	-255.85
223.77	-178.85
223.904	22.15
224.037	-176.85
224.171	71.15
224.304	0.15
224.438	-187.85
224.571	-107.85
224.705	155.15
224.839	-46.85
224.972	-330.85
225.106	-38.85
225.239	-73.85
225.373	60.15
225.506	-54.85
225.64	81.15
225.773	-124.85
225.907	-197.85
226.04	-338.85
226.174	-104.85
226.307	-68.85
226.441	-130.85
226.575	11.15
226.708	159.15
226.842	-116.85
226.975	-152.85
227.109	-211.85
227.242	-11.85
227.375	43.15
227.509	-33.85
227.642	-161.85
227.776	31.15
227.909	45.15
228.043	-233.85
228.176	229.15
228.31	-262.85
228.443	329.15
228.577	-71.85
228.71	-138.85
228.844	-17.85
228.977	-263.85
229.111	-171.85
229.244	25.15
229.377	-338.85
229.511	-23.85
229.644	-170.85
229.778	-190.85
229.911	-204.85
230.044	-111.85
230.178	-55.85
230.311	-245.85
230.445	33.15
230.578	-200.85
230.711	-99.85
230.845	297.15
230.978	76.15
231.112	-235.85
231.245	-212.85
231.378	-222.85
231.512	67.15
231.645	-396.85
231.779	-341.85
231.912	-33.85
232.045	58.15
232.179	-215.85
232.312	-128.85
232.445	103.15
232.579	280.15
232.712	157.15
232.845	-155.85
232.979	-382.85
233.112	72.15
233.245	-129.85
233.379	-333.85
233.512	-32.85
233.645	-242.85
233.779	-258.85
233.912	41.15
234.045	-149.85
234.179	43.15
234.312	-174.85
234.445	15.15
234.578	-30.85
234.712	-10.85
234.845	55.15
234.978	-201.85
235.112	-66.85
235.245	101.15
235.378	-167.85
235.511	-49.85
235.645	35.15
235.778	14.15
235.911	-164.85
236.044	-308.85
236.178	287.15
236.311	-259.85
236.444	-243.85
236.577	-242.85
236.711	-54.85
236.844	-418.85
236.977	-139.85
237.11	-200.85
237.243	20.15
237.377	-277.85
237.51	-233.85
237.643	949.15
237.776	-153.85
237.909	-144.85
238.043	-32.85
238.176	-234.85
238.309	-71.85
238.442	-311.85
238.575	-78.85
238.709	414.15
238.842	-24.85
238.975	-7.85
239.108	165.15
239.241	-297.85
239.374	-255.85
239.508	-212.85
239.641	210.15
239.774	344.15
239.907	-70.85
240.04	-296.85
240.173	32.15
240.306	223.15
240.44	-184.85
240.573	152.15
240.706	-154.85
240.839	16.15
240.972	-79.85
241.105	-43.85
241.238	27.15
241.371	-30.85
241.504	-31.85
241.638	-120.85
241.771	-22.85
241.904	-176.85
242.037	36.15
242.17	-150.85
242.303	-353.85
242.436	-84.85
242.569	-114.85
242.702	-191.85
242.835	-175.85
242.968	-9.85
243.101	-114.85
243.234	-224.85
243.367	-252.85
243.5	-124.85
243.634	-175.85
243.767	-325.85
243.9	-248.85
244.033	-254.85
244.166	78.15
244.299	-302.85
244.432	-230.85
244.565	-17.85
244.698	-315.85
244.831	-202.85
244.964	-274.85
245.097	-186.85
245.23	8.15
245.363	149.15
245.496	-292.85
245.629	-143.85
245.762	465.15
245.895	-260.85
246.028	-229.85
246.161	427.15
246.294	40.15
246.427	-225.85
246.559	104.15
246.692	-70.85
246.825	-158.85
246.958	-227.85
247.091	-281.85
247.224	-332.85
247.357	-193.85
247.49	132.15
247.623	-174.85
247.756	-278.85
247.889	308.15
248.022	-129.85
248.155	-265.85
248.288	-116.85
248.421	-221.85
248.553	96.15
248.686	-237.85
248.819	78.15
248.952	-267.85
249.085	154.15
249.218	-55.85
249.351	-75.85
249.484	152.15
249.617	-103.85
249.749	-248.85
249.882	-224.85
250.015	-239.85
250.148	-158.85
250.281	-262.85
250.414	-164.85
250.547	-147.85
250.679	205.15
250.812	-99.85
250.945	27.15
251.078	-254.85
251.211	-132.85
251.344	-300.85
251.476	-162.85
251.609	1.15
251.742	-278.85
251.875	-47.85
252.008	-215.85
252.14	-343.85
252.273	-115.85
252.406	132.15
252.539	-31.85
252.672	-93.85
252.804	131.15
252.937	-272.85
253.07	-23.85
253.203	-133.85
253.335	74.15
253.468	-370.85
253.601	-139.85
253.734	-43.85
253.866	-135.85
253.999	375.15
254.132	-5.85
254.265	-140.85
254.397	-178.85
254.53	-131.85
254.663	23.15
254.796	-231.85
254.928	-269.85
255.061	-242.85
255.194	-68.85
255.327	-331.85
255.459	-32.85
255.592	-275.85
255.725	168.15
255.857	-230.85
255.99	-18.85
256.123	-250.85
256.255	-244.85
256.388	-75.85
256.521	-247.85
256.653	-301.85
256.786	-227.85
256.919	-188.85
257.051	-267.85
257.184	-9.85
257.317	-214.85
257.449	-277.85
257.582	-73.85
257.715	-216.85
257.847	-222.85
257.98	-123.85
258.113	-214.85
258.245	-129.85
258.378	-376.85
258.51	-265.85
258.643	-238.85
258.776	37.15
258.908	-286.85
259.041	-70.85
259.174	-203.85
259.306	-204.85
259.439	-274.85
259.571	-204.85
259.704	-97.85
259.837	133.15
259.969	-220.85
260.102	-247.85
260.234	193.15
260.367	58.15
260.499	-218.85
260.632	-158.85
260.765	-189.85
260.897	-207.85
261.03	-252.85
261.162	-65.85
261.295	-55.85
261.427	118.15
261.56	-80.85
261.692	-283.85
261.825	-57.85
261.957	94.15
262.09	109.15
262.222	27.15
262.355	-236.85
262.487	-133.85
262.62	-272.85
262.752	-93.85
262.885	-134.85
263.017	-5.85
263.15	-222.85
263.282	-82.85
263.415	-238.85
263.547	-44.85
263.68	199.15
263.812	-322.85
263.945	-130.85
264.077	-231.85
264.21	186.15
264.342	-305.85
264.475	-234.85
264.607	159.15
264.74	-378.85
264.872	-99.85
265.004	92.15
265.137	83.15
265.269	323.15
265.402	-259.85
265.534	-202.85
265.667	-173.85
265.799	62.15
265.931	-90.85
266.064	19.15
266.196	-145.85
266.329	-186.85
266.461	-153.85
266.593	19.15
266.726	-337.85
266.858	-177.85
266.99	-110.85
267.123	-187.85
267.255	-40.85
267.388	-137.85
267.52	-256.85
267.652	-196.85
267.785	98.15
267.917	10.15
268.049	-141.85
268.182	398.15
268.314	31.15
268.446	-345.85
268.579	-227.85
268.711	191.15
268.843	-207.85
268.976	-78.85
269.108	375.15
269.24	187.15
269.373	11.15
269.505	-166.85
269.637	-141.85
269.77	-212.85
269.902	133.15
270.034	-259.85
270.167	32.15
270.299	-28.85
270.431	3.15
270.563	-218.85
270.696	-15.85
270.828	-113.85
270.96	-76.85
271.092	-24.85
271.225	-230.85
271.357	-60.85
271.489	-179.85
271.621	-249.85
271.754	514.15
271.886	-232.85
272.018	-155.85
272.15	288.15
272.283	-257.85
272.415	-166.85
272.547	67.15
272.679	105.15
272.811	-97.85
272.944	-110.85
273.076	-367.85
273.208	-57.85
273.34	-92.85
273.473	-132.85
273.605	73.15
273.737	-285.85
273.869	-60.85
274.001	-396.85
274.133	-3.85
274.266	-204.85
274.398	1450.15
274.53	0.15
274.662	153.15
274.794	4.15
274.926	71.15
275.059	-183.85
275.191	-0.85
275.323	-230.85
275.455	107.15
275.587	-213.85
275.719	-170.85
275.851	-95.85
275.983	28.15
276.116	-40.85
276.248	132.15
276.38	-254.85
276.512	-10.85
276.644	-130.85
276.776	-256.85
276.908	-77.85
277.04	-112.85
277.172	37.15
277.304	-168.85
277.437	-7.85
277.569	-199.85
277.701	-263.85
277.833	-134.85
277.965	-178.85
278.097	59.15
278.229	-179.85
278.361	-181.85
278.493	116.15
278.625	193.15
278.757	16.15
278.889	-230.85
279.021	-175.85
279.153	488.15
279.285	-235.85
279.417	566.15
279.549	88.15
279.681	-126.85
279.813	-203.85
279.945	22.15
280.077	-201.85
280.209	1049.15
280.341	-288.85
280.473	-177.85
280.605	57.15
280.737	-39.85
280.869	243.15
281.001	-49.85
281.133	-333.85
281.265	-6.85
281.397	-149.85
281.529	242.15
281.661	-273.85
281.793	-356.85
281.925	-218.85
282.057	-136.85
282.189	-156.85
282.321	-28.85
282.453	-8.85
282.585	-252.85
282.717	131.15
282.849	-69.85
282.98	-171.85
283.112	-201.85
283.244	-13.85
283.376	-228.85
283.508	-360.85
283.64	-255.85
283.772	111.15
283.904	70.15
284.036	-308.85
284.168	149.15
284.299	-35.85
284.431	-39.85
284.563	-109.85
284.695	-144.85
284.827	-241.85
284.959	-34.85
285.091	-244.85
285.222	-282.85
285.354	-176.85
285.486	-110.85
285.618	-262.85
285.75	-125.85
285.882	173.15
286.013	44.15
286.145	-20.85
286.277	-14.85
286.409	73.15
286.541	41.15
286.673	-224.85
286.804	-237.85
286.936	-66.85
287.068	-203.85
287.2	-249.85
287.332	309.15
287.463	-320.85
287.595	-45.85
287.727	420.15
287.859	-82.85
287.99	-106.85
288.122	-199.85
288.254	28.15
288.386	-165.85
288.517	-294.85
288.649	-166.85
288.781	-31.85
288.913	-29.85
289.044	-303.85
289.176	154.15
289.308	-176.85
289.44	-359.85
289.571	-208.85
289.703	-279.85
289.835	64.15
289.967	-247.85
290.098	-330.85
290.23	-328.85
290.362	111.15
290.493	-343.85
290.625	-169.85
290.757	-174.85
290.888	-129.85
291.02	-37.85
291.152	-26.85
291.283	-9.85
291.415	-154.85
291.547	-245.85
291.678	-247.85
291.81	-44.85
291.942	277.15
292.073	-23.85
292.205	-286.85
292.337	71.15
292.468	490.15
292.6	-188.85
292.732	593.15
292.863	-210.85
292.995	-339.85
293.126	61.15
293.258	184.15
293.39	-270.85
293.521	-248.85
293.653	-310.85
293.785	113.15
293.916	-156.85
294.048	21.15
294.179	0.15
294.311	-245.85
294.442	44.15
294.574	-277.85
294.706	-90.85
294.837	86.15
294.969	-66.85
295.1	-179.85
295.232	-243.85
295.363	173.15
295.495	-172.85
295.627	23.15
295.758	102.15
295.89	-352.85
296.021	32.15
296.153	29.15
296.284	-96.85
296.416	-134.85
296.547	-161.85
296.679	-65.85
296.81	-45.85
296.942	-345.85
297.073	-274.85
297.205	-289.85
297.336	-203.85
297.468	-222.85
297.599	-68.85
297.731	-366.85
297.862	-98.85
297.994	-308.85
298.125	-266.85
298.257	-158.85
298.388	19.15
298.52	-2.85
298.651	-112.85
298.782	268.15
298.914	-234.85
299.045	-157.85
299.177	-300.85
299.308	-324.85
299.44	5.15
299.571	-30.85
299.702	-160.85
299.834	-86.85
299.965	-137.85
300.097	-242.85
300.228	-20.85
300.36	-77.85
300.491	-105.85
300.622	-15.85
300.754	-137.85
300.885	-210.85
301.017	-37.85
301.148	-207.85
301.279	-327.85
301.411	13.15
301.542	-47.85
301.673	-43.85
301.805	-29.85
301.936	-208.85
302.067	-122.85
302.199	-197.85
302.33	-273.85
302.461	308.15
302.593	18.15
302.724	-50.85
302.855	-301.85
302.987	-138.85
303.118	-279.85
303.249	-327.85
303.381	-130.85
303.512	-183.85
303.643	-217.85
303.775	134.15
303.906	-273.85
304.037	-226.85
304.169	-228.85
304.3	-163.85
304.431	-280.85
304.562	-200.85
304.694	-163.85
304.825	-37.85
304.956	66.15
305.087	-188.85
305.219	-8.85
305.35	-96.85
305.481	-227.85
305.612	29.15
305.744	-12.85
305.875	-167.85
306.006	487.15
306.137	-208.85
306.269	-42.85
306.4	40.15
306.531	101.15
306.662	-152.85
306.794	103.15
306.925	-180.85
307.056	-250.85
307.187	-35.85
307.318	-118.85
307.45	-155.85
307.581	-180.85
307.712	-231.85
307.843	-94.85
307.974	-99.85
308.105	96.15
308.237	-74.85
308.368	-310.85
308.499	-164.85
308.63	2.15
308.761	-113.85
308.892	-96.85
309.024	-159.85
309.155	-188.85
309.286	-200.85
309.417	-279.85
309.548	-156.85
309.679	-157.85
309.81	-397.85
309.941	411.15
310.073	-53.85
310.204	-330.85
310.335	-31.85
310.466	-195.85
310.597	-246.85
310.728	-176.85
310.859	343.15
310.99	280.15
311.121	-102.85
311.252	-130.85
311.383	-257.85
311.514	-63.85
311.646	-173.85
311.777	-26.85
311.908	-93.85
312.039	-141.85
312.17	-330.85
312.301	-136.85
312.432	-209.85
312.563	-342.85
312.694	-30.85
312.825	-170.85
312.956	-218.85
313.087	59.15
313.218	34.15
313.349	-118.85
313.48	-354.85
313.611	-138.85
313.742	-97.85
313.873	31.15
314.004	-66.85
314.135	-163.85
314.266	-70.85
314.397	-181.85
314.528	-264.85
314.659	-270.85
314.79	-217.85
314.921	47.15
315.052	13.15
315.183	-265.85
315.314	-341.85
315.445	65.15
315.576	-53.85
315.707	-146.85
315.838	-162.85
315.968	-23.85
316.099	-292.85
316.23	-319.85
316.361	91.15
316.492	-152.85
316.623	57.15
316.754	157.15
316.885	-393.85
317.016	-308.85
317.147	-355.85
317.278	73.15
317.408	-242.85
317.539	-302.85
317.67	-287.85
317.801	-21.85
317.932	-177.85
318.063	-215.85
318.194	-155.85
318.325	-2.85
318.455	-369.85
318.586	-167.85
318.717	-39.85
318.848	-352.85
318.979	74.15
319.11	245.15
319.24	13.15
319.371	56.15
319.502	-118.85
319.633	-248.85
319.764	-122.85
319.895	-250.85
320.025	-76.85
320.156	-298.85
320.287	-410.85
320.418	-217.85
320.549	-82.85
320.679	-317.85
320.81	118.15
320.941	-314.85
321.072	-284.85
321.202	-41.85
321.333	253.15
321.464	-390.85
321.595	-259.85
321.726	227.15
321.856	-347.85
321.987	-142.85
322.118	-231.85
322.249	12.15
322.379	-77.85
322.51	12.15
322.641	-92.85
322.771	-296.85
322.902	-75.85
323.033	-99.85
323.164	698.15
323.294	-175.85
323.425	-220.85
323.556	-198.85
323.686	-103.85
323.817	281.15
323.948	-30.85
324.078	-173.85
324.209	130.15
324.34	-188.85
324.47	176.15
324.601	-232.85
324.732	-65.85
324.862	19.15
324.993	-239.85
325.124	-417.85
325.254	-81.85
325.385	-69.85
325.516	497.15
325.646	384.15
325.777	-194.85
325.908	-145.85
326.038	56.15
326.169	-129.85
326.299	-58.85
326.43	137.15
326.561	-131.85
326.691	-155.85
326.822	-273.85
326.952	-181.85
327.083	-67.85
327.214	-249.85
327.344	-85.85
327.475	-32.85
327.605	-36.85
327.736	-180.85
327.867	-283.85
327.997	-140.85
328.128	-86.85
328.258	-330.85
328.389	264.15
328.519	-261.85
328.65	46.15
328.78	-220.85
328.911	-20.85
329.041	83.15
329.172	-347.85
329.303	-224.85
329.433	-156.85
329.564	-270.85
329.694	-259.85
329.825	-216.85
329.955	-70.85
330.086	423.15
330.216	-144.85
330.347	-274.85
330.477	-123.85
330.608	-138.85
330.738	-121.85
330.868	-291.85
330.999	-173.85
331.129	121.15
331.26	-238.85
331.39	-219.85
331.521	126.15
331.651	25.15
331.782	-324.85
331.912	-271.85
332.043	-252.85
332.173	41.15
332.303	-327.85
332.434	93.15
332.564	-18.85
332.695	-233.85
332.825	-339.85
332.956	-190.85
333.086	-84.85
333.216	-246.85
333.347	-60.85
333.477	-417.85
333.608	-106.85
333.738	-3.85
333.868	-121.85
333.999	-59.85
334.129	67.15
334.259	-48.85
334.39	-224.85
334.52	52.15
334.65	-180.85
334.781	130.15
334.911	-204.85
335.042	-263.85
335.172	-31.85
335.302	-119.85
335.433	243.15
335.563	-272.85
335.693	18.15
335.824	275.15
335.954	-368.85
336.084	-9.85
336.214	-24.85
336.345	296.15
336.475	47.15
336.605	-242.85
336.736	323.15
336.866	-121.85
336.996	-153.85
337.126	-277.85
337.257	-92.85
337.387	-363.85
337.517	-226.85
337.648	-359.85
337.778	154.15
337.908	44.15
338.038	24.15
338.169	-206.85
338.299	248.15
338.429	-19.85
338.559	-246.85
338.69	-185.85
338.82	360.15
338.95	-25.85
339.08	-459.85
339.21	-307.85
339.341	-102.85
339.471	52.15
339.601	-98.85
339.731	-71.85
339.861	-160.85
339.992	-129.85
340.122	-139.85
340.252	-221.85
340.382	-196.85
340.512	-85.85
340.642	153.15
340.773	-78.85
340.903	-297.85
341.033	-108.85
341.163	-29.85
341.293	106.15
341.423	-238.85
341.554	-317.85
341.684	-51.85
341.814	-133.85
341.944	-157.85
342.074	-115.85
342.204	-177.85
342.334	151.15
342.464	-264.85
342.595	-157.85
342.725	-298.85
342.855	-32.85
342.985	-159.85
343.115	-250.85
343.245	-378.85
343.375	-21.85
343.505	-113.85
343.635	5.15
343.765	-221.85
343.895	-404.85
344.025	20.15
344.155	-310.85
344.286	-193.85
344.416	-53.85
344.546	89.15
344.676	-126.85
344.806	172.15
344.936	-71.85
345.066	174.15
345.196	-283.85
345.326	-290.85
345.456	110.15
345.586	-262.85
345.716	-303.85
345.846	33.15
345.976	-378.85
346.106	-92.85
346.236	60.15
346.366	44.15
346.496	-193.85
346.626	-169.85
346.756	-215.85
346.886	-238.85
347.016	-342.85
347.146	-216.85
347.276	-255.85
347.406	-199.85
347.536	-48.85
347.666	110.15
347.795	-259.85
347.925	-181.85
348.055	96.15
348.185	-169.85
348.315	-201.85
348.445	101.15
348.575	-177.85
348.705	-260.85
348.835	-247.85
348.965	-161.85
349.095	-7.85
349.225	238.15
349.354	-243.85
349.484	-186.85
349.614	-194.85
349.744	-242.85
349.874	-258.85
350.004	-341.85
350.134	-295.85
350.264	-343.85
350.393	-303.85
350.523	103.15
350.653	-328.85
350.783	23.15
350.913	171.15
351.043	-194.85
351.173	-172.85
351.302	-18.85
351.432	187.15
351.562	-95.85
351.692	-77.85
351.822	-166.85
351.951	-380.85
352.081	187.15
352.211	-116.85
352.341	163.15
352.471	137.15
352.6	-163.85
352.73	-216.85
352.86	-148.85
352.99	-14.85
353.12	-68.85
353.249	-21.85
353.379	-230.85
353.509	68.15
353.639	-310.85
353.768	-107.85
353.898	-224.85
354.028	-276.85
354.158	-186.85
354.287	-201.85
354.417	-293.85
354.547	-276.85
354.677	-385.85
354.806	-130.85
354.936	-17.85
355.066	-184.85
355.195	-38.85
355.325	-36.85
355.455	-262.85
355.584	158.15
355.714	-272.85
355.844	121.15
355.974	-11.85
356.103	-122.85
356.233	-142.85
356.363	28.15
356.492	-253.85
356.622	-285.85
356.752	-12.85
356.881	-360.85
357.011	33.15
357.14	130.15
357.27	-144.85
357.4	55.15
357.529	-169.85
357.659	135.15
357.789	-15.85
357.918	-311.85
358.048	-337.85
358.177	-118.85
358.307	-260.85
358.437	-110.85
358.566	-233.85
358.696	37.15
358.825	120.15
358.955	-306.85
359.085	29.15
359.214	-414.85
359.344	-109.85
359.473	-272.85
359.603	-147.85
359.733	-226.85
359.862	-334.85
359.992	93.15
360.121	-180.85
360.251	27.15
360.38	-329.85
360.51	87.15
360.639	-170.85
360.769	-98.85
360.898	97.15
361.028	23.15
361.157	-94.85
361.287	-57.85
361.416	-276.85
361.546	-156.85
361.675	-136.85
361.805	-173.85
361.934	12.15
362.064	-200.85
362.193	-222.85
362.323	-282.85
362.452	110.15
362.582	-233.85
362.711	-133.85
362.841	5.15
362.97	-4.85
363.1	-264.85
363.229	-311.85
363.359	-140.85
363.488	-231.85
363.617	-113.85
363.747	-79.85
363.876	-380.85
364.006	-60.85
364.135	-110.85
364.265	-138.85
364.394	-185.85
364.523	292.15
364.653	-265.85
364.782	-25.85
364.912	-253.85
365.041	-278.85
365.17	-283.85
365.3	17.15
365.429	156.15
365.558	-174.85
365.688	-241.85
365.817	-293.85
365.947	-66.85
366.076	-52.85
366.205	-90.85
366.335	-374.85
366.464	-255.85
366.593	83.15
366.723	-147.85
366.852	-142.85
366.981	-114.85
367.111	-257.85
367.24	-158.85
367.369	-126.85
367.499	515.15
367.628	102.15
367.757	-171.85
367.886	-46.85
368.016	90.15
368.145	-107.85
368.274	-80.85
368.404	-319.85
368.533	-101.85
368.662	0.15
368.791	-212.85
368.921	-346.85
369.05	151.15
369.179	-44.85
369.308	312.15
369.438	-318.85
369.567	-356.85
369.696	-156.85
369.825	-14.85
369.955	-170.85
370.084	-23.85
370.213	-104.85
370.342	-287.85
370.472	-289.85
370.601	420.15
370.73	21.15
370.859	-416.85
370.988	-179.85
371.118	-286.85
371.247	15.15
371.376	77.15
371.505	-58.85
371.634	-28.85
371.763	-136.85
371.893	-256.85
372.022	-168.85
372.151	-260.85
372.28	-330.85
372.409	-386.85
372.538	-166.85
372.667	-78.85
372.797	86.15
372.926	-337.85
373.055	-81.85
373.184	-145.85
373.313	-260.85
373.442	-40.85
373.571	-248.85
373.7	-151.85
373.83	-48.85
373.959	-442.85
374.088	-158.85
374.217	108.15
374.346	-184.85
374.475	-372.85
374.604	-254.85
374.733	278.15
374.862	-95.85
374.991	-257.85
375.12	-94.85
375.249	-78.85
375.378	-223.85
375.508	-304.85
375.637	-321.85
375.766	29.15
375.895	-179.85
376.024	122.15
376.153	-257.85
376.282	-150.85
376.411	-220.85
376.54	-419.85
376.669	-70.85
376.798	-212.85
376.927	-303.85
377.056	55.15
377.185	-86.85
377.314	89.15
377.443	245.15
377.572	-272.85
377.701	-281.85
377.83	156.15
377.959	-18.85
378.088	1691.15
378.217	125.15
378.346	-208.85
378.474	-380.85
378.603	-268.85
378.732	-54.85
378.861	-182.85
378.99	-246.85
379.119	-389.85
379.248	-73.85
379.377	-173.85
379.506	-193.85
379.635	77.15
379.764	-82.85
379.893	-262.85
380.022	-329.85
380.15	-96.85
380.279	-345.85
380.408	-244.85
380.537	-134.85
380.666	-39.85
380.795	-57.85
380.924	-175.85
381.053	-268.85
381.181	-91.85
381.31	731.15
381.439	-249.85
381.568	-181.85
381.697	-203.85
381.826	-137.85
381.955	-276.85
382.083	-129.85
382.212	-329.85
382.341	12.15
382.47	-236.85
382.599	-159.85
382.727	228.15
382.856	-44.85
382.985	-42.85
383.114	-158.85
383.243	-230.85
383.371	-154.85
383.5	-263.85
383.629	-294.85
383.758	-264.85
383.887	-418.85
384.015	-68.85
384.144	-299.85
384.273	-117.85
384.402	-36.85
384.53	-267.85
384.659	-264.85
384.788	-275.85
384.917	-253.85
385.045	-83.85
385.174	-136.85
385.303	-386.85
385.432	3.15
385.56	-122.85
385.689	-165.85
385.818	-63.85
385.946	-22.85
386.075	-266.85
386.204	-291.85
386.332	-114.85
386.461	12.15
386.59	16.15
386.718	-327.85
386.847	-192.85
386.976	-185.85
387.104	-354.85
387.233	-303.85
387.362	-79.85
387.49	-95.85
387.619	-269.85
387.748	-134.85
387.876	107.15
388.005	-99.85
388.134	94.15
388.262	-354.85
388.391	-246.85
388.52	-24.85
388.648	-308.85
388.777	54.15
388.905	-254.85
389.034	-166.85
389.163	-255.85
389.291	-135.85
389.42	24.15
389.548	69.15
389.677	-118.85
389.805	-139.85
389.934	-10.85
390.063	-275.85
390.191	-355.85
390.32	-234.85
390.448	-154.85
390.577	-282.85
390.705	-328.85
390.834	-153.85
390.962	-318.85
391.091	-276.85
391.22	67.15
391.348	128.15
391.477	-56.85
391.605	-342.85
391.734	-226.85
391.862	-251.85
391.991	-312.85
392.119	-276.85
392.248	-163.85
392.376	-123.85
392.505	-177.85
392.633	-214.85
392.762	299.15
392.89	-287.85
393.018	13.15
393.147	-178.85
393.275	-354.85
393.404	-259.85
393.532	-212.85
393.661	-87.85
393.789	-45.85
393.918	-106.85
394.046	-118.85
394.174	-137.85
394.303	-336.85
394.431	-212.85
394.56	13.15
394.688	-355.85
394.817	-405.85
394.945	87.15
395.073	75.15
395.202	-100.85
395.33	-180.85
395.459	-148.85
395.587	110.15
395.715	68.15
395.844	-127.85
395.972	-434.85
396.1	84.15
396.229	-265.85
396.357	-67.85
396.485	-200.85
396.614	-229.85
396.742	64.15
396.87	-96.85
396.999	-16.85
397.127	-314.85
397.255	-69.85
397.384	61.15
397.512	-359.85
397.64	-284.85
397.769	-140.85
397.897	-41.85
398.025	-130.85
398.154	-91.85
398.282	201.15
398.41	-106.85
398.538	-103.85
398.667	-218.85
398.795	-233.85
398.923	22.15
399.052	-231.85
399.18	-191.85
399.308	-161.85
399.436	170.15
399.565	-316.85
399.693	-57.85
399.821	-131.85
399.949	-198.85
400.078	273.15
400.206	-320.85
400.334	-311.85
400.462	-163.85
400.59	-336.85
400.719	-224.85
400.847	-294.85
400.975	-49.85
401.103	-279.85
401.231	-80.85
401.36	-122.85
401.488	-36.85
401.616	-200.85
401.744	-173.85
401.872	-233.85
402	-15.85
402.129	-215.85
402.257	-278.85
402.385	-175.85
402.513	-178.85
402.641	-204.85
402.769	-169.85
402.897	-253.85
403.026	-344.85
403.154	-373.85
403.282	-315.85
403.41	-204.85
403.538	144.15
403.666	-329.85
403.794	-168.85
403.922	-89.85
404.05	-103.85
404.179	-155.85
404.307	-73.85
404.435	-274.85
404.563	-279.85
404.691	-382.85
404.819	453.15
404.947	-278.85
405.075	-271.85
405.203	-321.85
405.331	-263.85
405.459	-333.85
405.587	-70.85
405.715	-238.85
405.843	-220.85
405.971	-101.85
406.099	114.15
406.227	-37.85
406.355	-160.85
406.483	-388.85
406.611	-40.85
406.739	-303.85
406.867	-306.85
406.995	-232.85
407.123	-185.85
407.251	-382.85
407.379	-326.85
407.507	-88.85
407.635	-156.85
407.763	-440.85
407.891	-433.85
408.019	-2.85
408.147	26.15
408.275	162.15
408.403	-348.85
408.531	-380.85
408.659	193.15
408.787	-132.85
408.915	-263.85
409.043	-247.85
409.171	54.15
409.299	14.15
409.427	75.15
409.554	-364.85
409.682	267.15
409.81	-97.85
409.938	-199.85
410.066	34.15
410.194	-62.85
410.322	-304.85
410.45	-195.85
410.578	-366.85
410.705	-282.85
410.833	-113.85
410.961	69.15
411.089	303.15
411.217	-192.85
411.345	-177.85
411.473	-265.85
411.6	-74.85
411.728	-210.85
411.856	-307.85
411.984	-311.85
412.112	-89.85
412.239	-79.85
412.367	-191.85
412.495	80.15
412.623	-262.85
412.751	32.15
412.878	-394.85
413.006	-155.85
413.134	99.15
413.262	187.15
413.39	-50.85
413.517	-85.85
413.645	42.15
413.773	-342.85
413.901	186.15
414.028	-146.85
414.156	-119.85
414.284	-294.85
414.412	8.15
414.539	-201.85
414.667	-234.85
414.795	-274.85
414.923	-420.85
415.05	-200.85
415.178	-59.85
415.306	330.15
415.433	-250.85
415.561	43.15
415.689	37.15
415.816	-243.85
415.944	130.15
416.072	-327.85
416.2	26.15
416.327	251.15
416.455	-279.85
416.583	-218.85
416.71	-260.85
416.838	139.15
416.966	-330.85
417.093	-178.85
417.221	52.15
417.348	-50.85
417.476	-336.85
417.604	-157.85
417.731	-191.85
417.859	47.15
417.987	-79.85
418.114	-290.85
418.242	48.15
418.369	-200.85
418.497	-326.85
418.625	174.15
418.752	-122.85
418.88	-312.85
419.007	157.15
419.135	-91.85
419.263	-209.85
419.39	47.15
419.518	82.15
419.645	38.15
419.773	619.15
419.9	1701.15
420.028	4192.15
420.155	5025.15
420.283	7027.15
420.41	8036.15
420.538	8819.15
420.666	9490.15
420.793	9639.15
420.921	8739.15
421.048	7002.15
421.176	4648.15
421.303	2431.15
421.431	686.15
421.558	-62.85
421.686	255.15
421.813	68.15
421.941	-220.85
422.068	-69.85
422.195	76.15
422.323	47.15
422.45	-359.85
422.578	-118.85
422.705	-245.85
422.833	-161.85
422.96	-282.85
423.088	-29.85
423.215	349.15
423.343	322.15
423.47	-51.85
423.597	205.15
423.725	-117.85
423.852	-139.85
423.98	-76.85
424.107	-338.85
424.234	-122.85
424.362	-189.85
424.489	-256.85
424.617	509.15
424.744	8.15
424.871	-312.85
424.999	-141.85
425.126	122.15
425.253	-83.85
425.381	-192.85
425.508	-314.85
425.636	-3.85
425.763	-215.85
425.89	-233.85
426.018	-349.85
426.145	-140.85
426.272	-123.85
426.4	32.15
426.527	102.15
426.654	-306.85
426.781	-69.85
426.909	-125.85
427.036	-93.85
427.163	-371.85
427.291	-272.85
427.418	-160.85
427.545	-128.85
427.673	-349.85
427.8	-391.85
427.927	-304.85
428.054	-82.85
428.182	-166.85
428.309	-202.85
428.436	-243.85
428.563	-339.85
428.691	-67.85
428.818	-258.85
428.945	22.15
429.072	-337.85
429.2	-92.85
429.327	-76.85
429.454	42.15
429.581	-156.85
429.708	-386.85
429.836	-268.85
429.963	-224.85
430.09	-258.85
430.217	-240.85
430.344	-330.85
430.472	-290.85
430.599	-12.85
430.726	-220.85
430.853	-133.85
430.98	-21.85
431.107	-300.85
431.235	-132.85
431.362	-53.85
431.489	-121.85
431.616	240.15
431.743	63.15
431.87	-354.85
431.997	-170.85
432.125	-103.85
432.252	-452.85
432.379	-211.85
432.506	-76.85
432.633	-250.85
432.76	-118.85
432.887	111.15
433.014	-194.85
433.141	-293.85
433.268	-84.85
433.395	-247.85
433.523	-185.85
433.65	-189.85
433.777	-221.85
433.904	-186.85
434.031	-326.85
434.158	-102.85
434.285	5.15
434.412	-354.85
434.539	-144.85
434.666	-266.85
434.793	-266.85
434.92	-290.85
435.047	-20.85
435.174	-166.85
435.301	0.15
435.428	268.15
435.555	152.15
435.682	-72.85
435.809	-319.85
435.936	84.15
436.063	-233.85
436.19	101.15
436.317	-292.85
436.444	5.15
436.571	-264.85
436.698	-29.85
436.825	101.15
436.952	-5.85
437.079	-88.85
437.206	-9.85
437.333	-300.85
437.46	-183.85
437.587	-123.85
437.714	-325.85
437.84	-161.85
437.967	-357.85
438.094	-361.85
438.221	47.15
438.348	-188.85
438.475	8052.15
438.602	-300.85
438.729	-418.85
438.856	-269.85
438.983	-324.85
439.109	-43.85
439.236	53.15
439.363	-422.85
439.49	-249.85
439.617	-129.85
439.744	-272.85
439.871	435.15
439.997	-270.85
440.124	-72.85
440.251	-91.85
440.378	-241.85
440.505	-211.85
440.632	46.15
440.758	166.15
440.885	252.15
441.012	-257.85
441.139	21.15
441.266	-313.85
441.392	-205.85
441.519	-328.85
441.646	-365.85
441.773	-70.85
441.9	241.15
442.026	-253.85
442.153	-102.85
442.28	-60.85
442.407	-276.85
442.533	31.15
442.66	-53.85
442.787	-101.85
442.914	-267.85
443.04	-222.85
443.167	-171.85
443.294	-157.85
443.421	-89.85
443.547	-353.85
443.674	-156.85
443.801	-36.85
443.927	48.15
444.054	402.15
444.181	79.15
444.307	92.15
444.434	-100.85
444.561	-326.85
444.688	-362.85
444.814	24.15
444.941	-195.85
445.068	-351.85
445.194	211.15
445.321	-271.85
445.447	195.15
445.574	-349.85
445.701	-371.85
445.827	-177.85
445.954	-416.85
446.081	-21.85
446.207	-288.85
446.334	-130.85
446.461	-165.85
446.587	-439.85
446.714	2.15
446.84	38.15
446.967	-278.85
447.094	-207.85
447.22	70.15
447.347	-162.85
447.473	-297.85
447.6	-94.85
447.726	-394.85
447.853	-114.85
447.98	-142.85
448.106	-86.85
448.233	-122.85
448.359	-251.85
448.486	-53.85
448.612	-244.85
448.739	-36.85
448.865	51.15
448.992	217.15
449.118	-212.85
449.245	-343.85
449.371	-307.85
449.498	-108.85
449.624	-36.85
449.751	-143.85
449.877	-252.85
450.004	-139.85
450.13	-107.85
450.257	-301.85
450.383	-159.85
450.51	-365.85
450.636	-240.85
450.763	-185.85
450.889	-245.85
451.016	-422.85
451.142	-80.85
451.269	-277.85
451.395	248.15
451.521	-165.85
451.648	-271.85
451.774	-126.85
451.901	-398.85
452.027	-153.85
452.154	59.15
452.28	-154.85
452.406	-281.85
452.533	-264.85
452.659	-350.85
452.785	-210.85
452.912	-301.85
453.038	-324.85
453.165	-69.85
453.291	113.15
453.417	151.15
453.544	-298.85
453.67	-213.85
453.796	107.15
453.923	-333.85
454.049	-239.85
454.175	-278.85
454.302	-252.85
454.428	-39.85
454.554	-94.85
454.681	-308.85
454.807	-289.85
454.933	279.15
455.06	-79.85
455.186	-184.85
455.312	90.15
455.439	56.15
455.565	-340.85
455.691	-313.85
455.817	-19.85
455.944	59.15
456.07	-167.85
456.196	-47.85
456.322	-393.85
456.449	-372.85
456.575	-172.85
456.701	-248.85
456.827	-293.85
456.954	-345.85
457.08	-305.85
457.206	-419.85
457.332	-125.85
457.459	-360.85
457.585	-275.85
457.711	-268.85
457.837	5.15
457.963	-102.85
458.09	-270.85
458.216	-341.85
458.342	-171.85
458.468	-194.85
458.594	-189.85
458.721	-137.85
458.847	-120.85
458.973	-370.85
459.099	-217.85
459.225	-223.85
459.351	-225.85
459.477	-82.85
459.604	-329.85
459.73	-254.85
459.856	-299.85
459.982	-111.85
460.108	-407.85
460.234	-437.85
460.36	-203.85
460.486	-17.85
460.613	-316.85
460.739	49.15
460.865	-241.85
460.991	204.15
461.117	145.15
461.243	-295.85
461.369	-319.85
461.495	-232.85
461.621	-144.85
461.747	-94.85
461.873	-51.85
461.999	-309.85
462.125	-186.85
462.252	40.15
462.378	-94.85
462.504	-35.85
462.63	-119.85
462.756	-358.85
462.882	-205.85
463.008	-224.85
463.134	96.15
463.26	-367.85
463.386	-253.85
463.512	-103.85
463.638	-229.85
463.764	-325.85
463.89	-202.85
464.016	44.15
464.142	-78.85
464.268	-318.85
464.394	-225.85
464.52	-352.85
464.645	-102.85
464.771	-22.85
464.897	-251.85
465.023	-260.85
465.149	-144.85
465.275	-334.85
465.401	-300.85
465.527	128.15
465.653	-151.85
465.779	57.15
465.905	-329.85
466.031	-128.85
466.157	-253.85
466.282	-211.85
466.408	-274.85
466.534	-171.85
466.66	-428.85
466.786	-212.85
466.912	-110.85
467.038	-161.85
467.164	-206.85
467.289	-251.85
467.415	-187.85
467.541	-166.85
467.667	-182.85
467.793	-192.85
467.919	-92.85
468.045	149.15
468.17	-298.85
468.296	-183.85
468.422	-203.85
468.548	35.15
468.674	-420.85
468.799	-284.85
468.925	-246.85
469.051	-325.85
469.177	-389.85
469.303	-405.85
469.428	-13.85
469.554	-280.85
469.68	-267.85
469.806	-35.85
469.931	-167.85
470.057	356.15
470.183	-490.85
470.309	-248.85
470.434	152.15
470.56	-195.85
470.686	-97.85
470.812	-201.85
470.937	-295.85
471.063	-271.85
471.189	-83.85
471.315	40.15
471.44	-134.85
471.566	-217.85
471.692	56.15
471.817	-293.85
471.943	-156.85
472.069	-40.85
472.194	-192.85
472.32	-275.85
472.446	-38.85
472.571	-311.85
472.697	-286.85
472.823	-137.85
472.948	-325.85
473.074	-120.85
473.2	-204.85
473.325	-341.85
473.451	-194.85
473.577	-200.85
473.702	-402.85
473.828	-194.85
473.953	-388.85
474.079	-139.85
474.205	-360.85
474.33	-358.85
474.456	-220.85
474.581	192.15
474.707	-117.85
474.833	-242.85
474.958	-59.85
475.084	-8.85
475.209	-220.85
475.335	-282.85
475.46	-111.85
475.586	-223.85
475.712	-95.85
475.837	-198.85
475.963	-217.85
476.088	-374.85
476.214	-282.85
476.339	-238.85
476.465	-275.85
476.59	-363.85
476.716	88.15
476.841	-324.85
476.967	193.15
477.092	-215.85
477.218	-100.85
477.343	-321.85
477.469	227.15
477.594	-267.85
477.72	-319.85
477.845	-129.85
477.971	-226.85
478.096	-124.85
478.222	-229.85
478.347	3293.15
478.472	2.15
478.598	-274.85
478.723	-239.85
478.849	-14.85
478.974	-71.85
479.1	-333.85
479.225	-176.85
479.35	-250.85
479.476	-54.85
479.601	-300.85
479.727	22.15
479.852	-275.85
479.977	-158.85
480.103	-172.85
480.228	204.15
480.354	-198.85
480.479	62.15
480.604	-249.85
480.73	-295.85
480.855	-453.85
480.98	8.15
481.106	-360.85
481.231	-374.85
481.356	-312.85
481.482	-429.85
481.607	-308.85
481.732	-482.85
481.858	-213.85
481.983	-302.85
482.108	-286.85
482.234	-382.85
482.359	-246.85
482.484	100.15
482.61	-290.85
482.735	-132.85
482.86	-378.85
482.985	-225.85
483.111	-199.85
483.236	-77.85
483.361	-257.85
483.486	-306.85
483.612	29.15
483.737	-402.85
483.862	-186.85
483.987	-84.85
484.113	-412.85
484.238	-50.85
484.363	-366.85
484.488	-245.85
484.614	-43.85
484.739	-199.85
484.864	60.15
484.989	421.15
485.114	-127.85
485.24	-185.85
485.365	-239.85
485.49	-413.85
485.615	-17.85
485.74	-200.85
485.865	-102.85
485.991	-121.85
486.116	-98.85
486.241	-397.85
486.366	-349.85
486.491	-64.85
486.616	-269.85
486.742	-237.85
486.867	-152.85
486.992	-344.85
487.117	-325.85
487.242	-333.85
487.367	-465.85
487.492	-229.85
487.617	-60.85
487.742	-168.85
487.868	-308.85
487.993	-64.85
488.118	-90.85
488.243	-70.85
488.368	-273.85
488.493	-400.85
488.618	-232.85
488.743	-228.85
488.868	-319.85
488.993	-204.85
489.118	6.15
489.243	-154.85
489.368	-274.85
489.493	24.15
489.618	-182.85
489.743	-314.85
489.868	-170.85
489.993	-271.85
490.118	-412.85
490.243	339.15
490.368	-272.85
490.493	-41.85
490.618	-0.85
490.743	-458.85
490.868	-149.85
490.993	-151.85
491.118	-20.85
491.243	-314.85
491.368	-148.85
491.493	-39.85
491.618	-154.85
491.743	-212.85
491.868	-266.85
491.993	-209.85
492.118	-276.85
492.243	-124.85
492.368	-90.85
492.493	-297.85
492.618	91.15
492.743	-243.85
492.867	36.15
492.992	-166.85
493.117	-20.85
493.242	-286.85
493.367	-191.85
493.492	46.15
493.617	-264.85
493.742	82.15
493.867	-229.85
493.991	-391.85
494.116	-184.85
494.241	-147.85
494.366	-212.85
494.491	-50.85
494.616	42.15
494.74	-309.85
494.865	-379.85
494.99	-252.85
495.115	-239.85
495.24	-159.85
495.365	-272.85
495.489	-227.85
495.614	-125.85
495.739	-226.85
495.864	-262.85
495.989	-435.85
496.113	4.15
496.238	-150.85
496.363	-270.85
496.488	-329.85
496.612	10.15
496.737	-275.85
496.862	-219.85
496.987	-262.85
497.111	-345.85
497.236	-292.85
497.361	-286.85
497.486	59.15
497.61	-1.85
497.735	-196.85
497.86	-46.85
497.984	-39.85
498.109	-395.85
498.234	-302.85
498.359	-267.85
498.483	-167.85
498.608	-192.85
498.733	-249.85
498.857	-345.85
498.982	-155.85
499.107	-406.85
499.231	-193.85
499.356	-233.85
499.481	90.15
499.605	-497.85
499.73	-379.85
499.855	13.15
499.979	-301.85
500.104	-194.85
500.228	148.15
500.353	-212.85
500.478	-346.85
500.602	-129.85
500.727	98.15
500.852	-67.85
500.976	-448.85
501.101	-247.85
501.225	164.15
501.35	-348.85
501.474	-305.85
501.599	5.15
501.724	-238.85
501.848	-163.85
501.973	108.15
502.097	-331.85
502.222	-410.85
502.346	-45.85
502.471	-109.85
502.595	-302.85
502.72	-347.85
502.844	-320.85
502.969	-218.85
503.094	135.15
503.218	-404.85
503.343	-279.85
503.467	-333.85
503.592	-222.85
503.716	-261.85
503.841	-114.85
503.965	199.15
504.089	-206.85
504.214	-360.85
504.338	-239.85
504.463	13.15
504.587	-133.85
504.712	-171.85
504.836	-196.85
504.961	245.15
505.085	85.15
505.21	-273.85
505.334	-268.85
505.458	208.15
505.583	-374.85
505.707	-80.85
505.832	-246.85
505.956	-136.85
506.08	-294.85
506.205	-261.85
506.329	115.15
506.454	-350.85
506.578	-177.85
506.702	-328.85
506.827	117.15
506.951	-87.85
507.076	-183.85
507.2	-353.85
507.324	-49.85
507.449	64.15
507.573	-200.85
507.697	-255.85
507.822	-147.85
507.946	-221.85
508.07	-415.85
508.195	-168.85
508.319	-229.85
508.443	-151.85
508.567	-422.85
508.692	-315.85
508.816	-319.85
508.94	-174.85
509.065	-447.85
509.189	-112.85
509.313	-78.85
509.437	-10.85
509.562	-226.85
509.686	-135.85
509.81	-235.85
509.935	-100.85
510.059	77.15
510.183	-293.85
510.307	-372.85
510.431	-27.85
510.556	-172.85
510.68	-258.85
510.804	-448.85
510.928	-172.85
511.053	-382.85
511.177	-396.85
511.301	-181.85
511.425	-279.85
511.549	-169.85
511.674	-163.85
511.798	-155.85
511.922	-55.85
512.046	136.15
512.17	-233.85
512.294	-353.85
512.419	-110.85
512.543	-59.85
512.667	-194.85
512.791	-295.85
512.915	-112.85
513.039	-228.85
513.163	-79.85
513.288	110.15
513.412	-232.85
513.536	12.15
513.66	-310.85
513.784	-174.85
513.908	-95.85
514.032	-122.85
514.156	-14.85
514.28	-20.85
514.404	-195.85
514.528	-217.85
514.653	-76.85
514.777	3.15
514.901	-98.85
515.025	97.15
515.149	-213.85
515.273	-83.85
515.397	-193.85
515.521	-181.85
515.645	-194.85
515.769	-309.85
515.893	-244.85
516.017	-289.85
516.141	-398.85
516.265	-248.85
516.389	-280.85
516.513	-170.85
516.637	-301.85
516.761	-479.85
516.885	-282.85
517.009	-213.85
517.133	-119.85
517.257	-246.85
517.381	-36.85
517.505	18.15
517.629	87.15
517.753	-219.85
517.877	-338.85
518.001	-248.85
518.125	-233.85
518.248	-43.85
518.372	-164.85
518.496	-386.85
518.62	-126.85
518.744	-192.85
518.868	-133.85
518.992	-151.85
519.116	-313.85
519.24	410.15
519.364	7.15
519.488	-177.85
519.611	-418.85
519.735	-213.85
519.859	-226.85
519.983	-15.85
520.107	-228.85
520.231	21.15
520.355	-143.85
520.478	-286.85
520.602	-333.85
520.726	84.15
520.85	-221.85
520.974	-2.85
521.098	-266.85
521.221	-339.85
521.345	56.15
521.469	-268.85
521.593	-191.85
521.717	30.15
521.84	-175.85
521.964	-301.85
522.088	-261.85
522.212	-214.85
522.335	-397.85
522.459	-287.85
522.583	182.15
522.707	-356.85
522.83	-446.85
522.954	-306.85
523.078	-281.85
523.202	4.15
523.325	-263.85
523.449	-159.85
523.573	-158.85
523.697	-296.85
523.82	-167.85
523.944	-240.85
524.068	-195.85
524.191	-227.85
524.315	-425.85
524.439	-144.85
524.562	-24.85
524.686	-246.85
524.81	-336.85
524.933	-262.85
525.057	-233.85
525.181	-98.85
525.304	-386.85
525.428	100.15
525.552	-375.85
525.675	-175.85
525.799	-303.85
525.923	-114.85
526.046	-84.85
526.17	-434.85
526.293	-350.85
526.417	-141.85
526.541	-8.85
526.664	-242.85
526.788	-236.85
526.911	-89.85
527.035	-350.85
527.159	-250.85
527.282	-254.85
527.406	-290.85
527.529	-53.85
527.653	-368.85
527.776	-120.85
527.9	-268.85
528.024	-310.85
528.147	-260.85
528.271	23.15
528.394	6.15
528.518	19.15
528.641	-360.85
528.765	-140.85
528.888	-169.85
529.012	-105.85
529.135	-261.85
529.259	46.15
529.382	-215.85
529.506	-337.85
529.629	-122.85
529.753	-386.85
529.876	96.15
530	46.15
530.123	-142.85
530.247	-323.85
530.37	-263.85
530.493	-154.85
530.617	-338.85
530.74	19.15
530.864	-66.85
530.987	-365.85
531.111	-100.85
531.234	-315.85
531.357	4.15
531.481	-2.85
531.604	19.15
531.728	-390.85
531.851	-141.85
531.974	-86.85
532.098	-235.85
532.221	-285.85
532.345	-222.85
532.468	-358.85
532.591	135.15
532.715	-207.85
532.838	-276.85
532.961	-216.85
533.085	-298.85
533.208	-165.85
533.331	-412.85
533.455	-15.85
533.578	-220.85
533.701	-107.85
533.825	-5.85
533.948	-272.85
534.071	-228.85
534.195	-87.85
534.318	-310.85
534.441	-273.85
534.564	-65.85
534.688	-251.85
534.811	-36.85
534.934	-236.85
535.058	-123.85
535.181	44.15
535.304	-41.85
535.427	-291.85
535.551	-378.85
535.674	-226.85
535.797	-60.85
535.92	-46.85
536.043	-371.85
536.167	-349.85
536.29	-81.85
536.413	-133.85
536.536	-341.85
536.66	-244.85
536.783	-119.85
536.906	-143.85
537.029	-268.85
537.152	-260.85
537.275	-195.85
537.399	93.15
537.522	-437.85
537.645	-206.85
537.768	-243.85
537.891	-114.85
538.014	-202.85
538.138	-282.85
538.261	-232.85
538.384	-186.85
538.507	-350.85
538.63	-255.85
538.753	124.15
538.876	-137.85
538.999	-343.85
539.123	-100.85
539.246	179.15
539.369	238.15
539.492	-275.85
539.615	-367.85
539.738	157.15
539.861	-281.85
539.984	-203.85
540.107	-124.85
540.23	-277.85
540.353	-306.85
540.476	-468.85
540.599	-67.85
540.722	-349.85
540.846	-136.85
540.969	-396.85
541.092	-125.85
541.215	-354.85
541.338	-154.85
541.461	-350.85
541.584	-183.85
541.707	-171.85
541.83	-293.85
541.953	-139.85
542.076	-105.85
542.199	-169.85
542.322	88.15
542.445	125.15
542.567	-241.85
542.69	-136.85
542.813	-254.85
542.936	-95.85
543.059	-142.85
543.182	227.15
543.305	58.15
543.428	-147.85
543.551	-205.85
543.674	112.15
543.797	-47.85
543.92	-219.85
544.043	258.15
544.166	-311.85
544.288	-233.85
544.411	-96.85
544.534	-333.85
544.657	-157.85
544.78	-237.85
544.903	-93.85
545.026	-196.85
545.149	-362.85
545.271	-337.85
545.394	-234.85
545.517	-387.85
545.64	366.15
545.763	-201.85
545.886	-294.85
546.008	-117.85
546.131	-9.85
546.254	-189.85
546.377	-391.85
546.5	-38.85
546.623	-58.85
546.745	-326.85
546.868	-194.85
546.991	20.15
547.114	-171.85
547.236	-194.85
547.359	-323.85
547.482	-112.85
547.605	-281.85
547.728	-256.85
547.85	-328.85
547.973	-276.85
548.096	-227.85
548.219	-111.85
548.341	-246.85
548.464	-393.85
548.587	-151.85
548.709	-228.85
548.832	-160.85
548.955	258.15
549.078	-21.85
549.2	-289.85
549.323	-265.85
549.446	161.15
549.568	-151.85
549.691	-107.85
549.814	-43.85
549.936	-263.85
550.059	-212.85
550.182	-350.85
550.304	-398.85
550.427	-155.85
550.55	-288.85
550.672	-269.85
550.795	276.15
550.917	-289.85
551.04	-191.85
551.163	-122.85
551.285	82.15
551.408	34.15
551.531	321.15
551.653	-352.85
551.776	-136.85
551.898	-102.85
552.021	-118.85
552.143	-197.85
552.266	-184.85
552.389	-174.85
552.511	-366.85
552.634	-363.85
552.756	-323.85
552.879	193.15
553.001	11.15
553.124	-396.85
553.246	-284.85
553.369	29.15
553.492	-183.85
553.614	10.15
553.737	-483.85
553.859	-40.85
553.982	-9.85
554.104	-135.85
554.227	-314.85
554.349	-219.85
554.472	-193.85
554.594	-448.85
554.716	17.15
554.839	-26.85
554.961	-103.85
555.084	-341.85
555.206	-144.85
555.329	-363.85
555.451	-366.85
555.574	-72.85
555.696	-327.85
555.819	-130.85
555.941	-182.85
556.063	-35.85
556.186	-202.85
556.308	-107.85
556.431	205.15
556.553	-57.85
556.675	-271.85
556.798	-201.85
556.92	-15.85
557.043	-278.85
557.165	-375.85
557.287	-24.85
557.41	-203.85
557.532	-168.85
557.654	-224.85
557.777	-1.85
557.899	-160.85
558.021	-232.85
558.144	56.15
558.266	78.15
558.388	242.15
558.511	-234.85
558.633	-169.85
558.755	-234.85
558.878	-289.85
559	-4.85
559.122	-420.85
559.244	-270.85
559.367	-168.85
559.489	26.15
559.611	145.15
559.734	-149.85
559.856	-134.85
559.978	-145.85
560.1	-176.85
560.223	-174.85
560.345	74.15
560.467	-373.85
560.589	-211.85
560.712	-210.85
560.834	199.15
560.956	-360.85
561.078	-195.85
561.2	-106.85
561.323	103.15
561.445	-373.85
561.567	-239.85
561.689	-335.85
561.811	-62.85
561.934	-207.85
562.056	-201.85
562.178	-61.85
562.3	-208.85
562.422	-66.85
562.544	-160.85
562.666	41.15
562.789	-97.85
562.911	-145.85
563.033	-8.85
563.155	-3.85
563.277	-250.85
563.399	-450.85
563.521	-248.85
563.643	-288.85
563.766	-153.85
563.888	17.15
564.01	-148.85
564.132	-337.85
564.254	-365.85
564.376	27.15
564.498	-135.85
564.62	128.15
564.742	-158.85
564.864	-405.85
564.986	-122.85
565.108	260.15
565.23	-255.85
565.352	-28.85
565.474	-110.85
565.597	151.15
565.719	125.15
565.841	-379.85
565.963	-98.85
566.085	-109.85
566.207	-205.85
566.329	51.15
566.451	43.15
566.573	-207.85
566.695	-227.85
566.817	184.15
566.938	-302.85
567.06	-199.85
567.182	-121.85
567.304	-185.85
567.426	-356.85
567.548	43.15
567.67	-118.85
567.792	-175.85
567.914	-295.85
568.036	-168.85
568.158	-149.85
568.28	-296.85
568.402	-78.85
568.524	-201.85
568.646	-296.85
568.767	-239.85
568.889	0.15
569.011	-181.85
569.133	-258.85
569.255	-378.85
569.377	-329.85
569.499	-117.85
569.621	-222.85
569.742	189.15
569.864	-4.85
569.986	288.15
570.108	-18.85
570.23	-374.85
570.352	63.15
570.473	-99.85
570.595	-172.85
570.717	-342.85
570.839	-132.85
570.961	-2.85
571.082	-197.85
571.204	-291.85
571.326	-297.85
571.448	7.15
571.57	-11.85
571.691	-117.85
571.813	-126.85
571.935	53.15
572.057	-150.85
572.178	-319.85
572.3	131.15
572.422	131.15
572.544	187.15
572.665	-271.85
572.787	-310.85
572.909	126.15
573.031	-60.85
573.152	-350.85
573.274	-45.85
573.396	-37.85
573.517	-42.85
573.639	-454.85
573.761	-275.85
573.882	-169.85
574.004	12.15
574.126	-314.85
574.247	-41.85
574.369	-28.85
574.491	-161.85
574.612	-334.85
574.734	-170.85
574.856	-128.85
574.977	-26.85
575.099	-143.85
575.221	-150.85
575.342	-183.85
575.464	-112.85
575.585	-64.85
575.707	-296.85
575.829	88.15
575.95	46.15
576.072	-236.85
576.193	-299.85
576.315	-201.85
576.437	-170.85
576.558	-190.85
576.68	-210.85
576.801	201.15
576.923	-342.85
577.044	46.15
577.166	-408.85
577.287	-151.85
577.409	-184.85
577.531	-184.85
577.652	-70.85
577.774	-366.85
577.895	-138.85
578.017	-314.85
578.138	-261.85
578.26	-177.85
578.381	-51.85
578.503	-288.85
578.624	-258.85
578.746	-352.85
578.867	-202.85
578.988	-94.85
579.11	139.15
579.231	-109.85
579.353	-208.85
579.474	-171.85
579.596	-223.85
579.717	12.15
579.839	-130.85
579.96	-446.85
580.081	-66.85
580.203	-201.85
580.324	-132.85
580.446	-74.85
580.567	-145.85
580.688	154.15
580.81	-302.85
580.931	-219.85
581.053	-380.85
581.174	-132.85
581.295	-258.85
581.417	-76.85
581.538	3.15
581.659	-28.85
581.781	-158.85
581.902	-244.85
582.024	-373.85
582.145	-328.85
582.266	-267.85
582.388	-194.85
582.509	-343.85
582.63	-152.85
582.751	-224.85
582.873	-232.85
582.994	-223.85
583.115	-183.85
583.237	-79.85
583.358	-268.85
583.479	-434.85
583.6	7.15
583.722	-154.85
583.843	-331.85
583.964	-58.85
584.086	-238.85
584.207	-59.85
584.328	-346.85
584.449	-93.85
584.57	-117.85
584.692	-133.85
584.813	831.15
584.934	-141.85
585.055	-283.85
585.177	-10.85
585.298	-159.85
585.419	-346.85
585.54	171.15
585.661	-50.85
585.783	-108.85
585.904	-274.85
586.025	68.15
586.146	-290.85
586.267	-255.85
586.388	-190.85
586.51	258.15
586.631	-329.85
586.752	-322.85
586.873	-244.85
586.994	-344.85
587.115	-342.85
587.236	-258.85
587.357	-403.85
587.479	-291.85
587.6	46.15
587.721	-239.85
587.842	-309.85
587.963	179.15
588.084	91.15
588.205	-314.85
588.326	-227.85
588.447	-145.85
588.568	-189.85
588.689	-141.85
588.81	-89.85
588.931	-182.85
589.052	-231.85
589.174	-271.85
589.295	-81.85
589.416	-97.85
589.537	7.15
589.658	-239.85
589.779	-401.85
589.9	36.15
590.021	-239.85
590.142	-227.85
590.263	-393.85
590.384	-135.85
590.505	190.15
590.626	-311.85
590.747	-144.85
590.867	-70.85
590.988	-45.85
591.109	-227.85
591.23	41.15
591.351	-1.85
591.472	-178.85
591.593	-229.85
591.714	-123.85
591.835	-229.85
591.956	-219.85
592.077	-405.85
592.198	-174.85
592.319	-94.85
592.44	-18.85
592.56	-246.85
592.681	-378.85
592.802	-79.85
592.923	-173.85
593.044	-274.85
593.165	-346.85
593.286	-68.85
593.407	-279.85
593.527	14.15
593.648	-329.85
593.769	-36.85
593.89	106.15
594.011	-179.85
594.132	-259.85
594.252	-108.85
594.373	-318.85
594.494	-388.85
594.615	-173.85
594.736	-210.85
594.856	25.15
594.977	-326.85
595.098	-102.85
595.219	-310.85
595.34	-95.85
595.46	-345.85
595.581	190.15
595.702	-172.85
595.823	-329.85
595.943	-123.85
596.064	-185.85
596.185	109.15
596.306	-390.85
596.426	-300.85
596.547	-358.85
596.668	-57.85
596.788	-87.85
596.909	-161.85
597.03	-138.85
597.151	-143.85
597.271	-268.85
597.392	-210.85
597.513	-104.85
597.633	-13.85
597.754	-138.85
597.875	-192.85
597.995	95.15
598.116	-126.85
598.237	-210.85
598.357	-274.85
598.478	-264.85
598.599	176.15
598.719	-187.85
598.84	-350.85
598.96	-269.85
599.081	-139.85
599.202	-187.85
599.322	-309.85
599.443	-320.85
599.563	-35.85
599.684	46.15
599.805	-231.85
599.925	-374.85
600.046	201.15
600.166	-218.85
600.287	-58.85
600.407	-144.85
600.528	77.15
600.649	-79.85
600.769	-186.85
600.89	-378.85
601.01	-1.85
601.131	-228.85
601.251	127.15
601.372	-108.85
601.492	-238.85
601.613	-262.85
601.733	-273.85
601.854	194.15
601.974	261.15
602.095	125.15
602.215	-362.85
602.336	-364.85
602.456	231.15
602.577	-239.85
602.697	682.15
602.817	-7.85
602.938	-146.85
603.058	-50.85
603.179	-338.85
603.299	-329.85
603.42	-350.85
603.54	-106.85
603.66	-364.85
603.781	-117.85
603.901	-224.85
604.022	123.15
604.142	-192.85
604.262	-165.85
604.383	-259.85
604.503	93.15
604.624	-262.85
604.744	-133.85
604.864	-49.85
604.985	-218.85
605.105	-113.85
605.225	-151.85
605.346	-151.85
605.466	16.15
605.586	189.15
605.707	279.15
605.827	-322.85
605.947	-180.85
606.068	-232.85
606.188	-203.85
606.308	-228.85
606.429	42.15
606.549	-243.85
606.669	-393.85
606.789	-273.85
606.91	-43.85
607.03	-298.85
607.15	-233.85
607.27	-111.85
607.391	25.15
607.511	-273.85
607.631	-301.85
607.751	136.15
607.872	-26.85
607.992	-326.85
608.112	26.15
608.232	-235.85
608.353	-307.85
608.473	-250.85
608.593	98.15
608.713	310.15
608.833	-131.85
608.954	-274.85
609.074	-240.85
609.194	-311.85
609.314	210.15
609.434	-7.85
609.554	-159.85
609.675	-55.85
609.795	-229.85
609.915	-319.85
610.035	270.15
610.155	-167.85
610.275	-219.85
610.395	-16.85
610.516	-353.85
610.636	-112.85
610.756	-66.85
610.876	-36.85
610.996	-291.85
611.116	158.15
611.236	-332.85
611.356	-270.85
611.476	-166.85
611.596	-110.85
611.716	102.15
611.836	-328.85
611.957	-317.85
612.077	-135.85
612.197	-75.85
612.317	-284.85
612.437	66.15
612.557	53.15
612.677	-182.85
612.797	-152.85
612.917	-356.85
613.037	-38.85
613.157	-124.85
613.277	-132.85
613.397	88.15
613.517	157.15
613.637	-246.85
613.757	-164.85
613.877	-278.85
613.997	-92.85
614.117	-232.85
614.237	-217.85
614.356	-100.85
614.476	38.15
614.596	0.15
614.716	-228.85
614.836	-182.85
614.956	-8.85
615.076	-101.85
615.196	-339.85
615.316	-126.85
615.436	-52.85
615.556	128.15
615.676	153.15
615.795	-67.85
615.915	-86.85
616.035	-221.85
616.155	-180.85
616.275	-297.85
616.395	-200.85
616.515	-3.85
616.635	-414.85
616.754	-458.85
616.874	-30.85
616.994	-117.85
617.114	218.15
617.234	6.15
617.354	-18.85
617.473	339.15
617.593	-237.85
617.713	-130.85
617.833	-46.85
617.953	-63.85
618.072	-465.85
618.192	-260.85
618.312	114.15
618.432	91.15
618.551	-282.85
618.671	-264.85
618.791	-58.85
618.911	-86.85
619.03	-175.85
619.15	-152.85
619.27	-150.85
619.39	-231.85
619.509	-186.85
619.629	-206.85
619.749	-260.85
619.868	-96.85
619.988	-382.85
620.108	-226.85
620.228	718.15
620.347	-110.85
620.467	-269.85
620.587	-283.85
620.706	71.15
620.826	-279.85
620.946	-298.85
621.065	-12.85
621.185	260.15
621.305	-220.85
621.424	-212.85
621.544	-443.85
621.663	-42.85
621.783	-187.85
621.903	193.15
622.022	-309.85
622.142	-109.85
622.261	141.15
622.381	-119.85
622.501	-77.85
622.62	-176.85
622.74	-131.85
622.859	-200.85
622.979	93.15
623.099	-198.85
623.218	-58.85
623.338	149.15
623.457	-68.85
623.577	-208.85
623.696	-62.85
623.816	-379.85
623.935	-281.85
624.055	-237.85
624.174	-130.85
624.294	-163.85
624.413	-372.85
624.533	-60.85
624.652	102.15
624.772	-279.85
624.891	-386.85
625.011	24.15
625.13	-200.85
625.25	-373.85
625.369	-234.85
625.489	-185.85
625.608	-265.85
625.728	-148.85
625.847	-175.85
625.966	-276.85
626.086	-249.85
626.205	-360.85
626.325	-90.85
626.444	-129.85
626.564	164.15
626.683	23.15
626.802	6.15
626.922	129.15
627.041	-29.85
627.161	-185.85
627.28	-15.85
627.399	27.15
627.519	-79.85
627.638	-389.85
627.757	-268.85
627.877	-151.85
627.996	-135.85
628.115	-57.85
628.235	-34.85
628.354	-299.85
628.473	-87.85
628.593	94.15
628.712	-161.85
628.831	-82.85
628.951	-333.85
629.07	58.15
629.189	-117.85
629.309	-146.85
629.428	157.15
629.547	-338.85
629.666	-45.85
629.786	-115.85
629.905	-311.85
630.024	-32.85
630.143	-103.85
630.263	-174.85
630.382	247.15
630.501	-222.85
630.62	-244.85
630.74	-312.85
630.859	91.15
630.978	-209.85
631.097	-346.85
631.216	-258.85
631.336	163.15
631.455	-275.85
631.574	-241.85
631.693	-43.85
631.812	-162.85
631.932	-438.85
632.051	87.15
632.17	363.15
632.289	-9.85
632.408	-234.85
632.527	-165.85
632.646	-106.85
632.766	-226.85
632.885	144.15
633.004	-372.85
633.123	-146.85
633.242	-240.85
633.361	627.15
633.48	-297.85
633.599	-250.85
633.718	57.15
633.838	-114.85
633.957	-354.85
634.076	-63.85
634.195	-148.85
634.314	-12.85
634.433	-42.85
634.552	-205.85
634.671	-112.85
634.79	193.15
634.909	33.15
635.028	-61.85
635.147	-30.85
635.266	-300.85
635.385	-115.85
635.504	-302.85
635.623	-34.85
635.742	-371.85
635.861	-364.85
635.98	-108.85
636.099	-239.85
636.218	-198.85
636.337	-137.85
636.456	268.15
636.575	-8.85
636.694	-115.85
636.813	-368.85
636.932	-290.85
637.051	-80.85
637.17	-418.85
637.289	-147.85
637.408	-299.85
637.526	-122.85
637.645	-443.85
637.764	-359.85
637.883	-206.85
638.002	53.15
638.121	365.15
638.24	-271.85
638.359	66.15
638.478	-191.85
638.597	-300.85
638.715	361.15
638.834	-132.85
638.953	20.15
639.072	-348.85
639.191	-384.85
639.31	34.15
639.428	-99.85
639.547	-119.85
639.666	-44.85
639.785	-23.85
639.904	-113.85
640.023	-365.85
640.141	-230.85
640.26	-164.85
640.379	-35.85
640.498	-423.85
640.616	-102.85
640.735	-120.85
640.854	52.15
640.973	-348.85
641.092	-26.85
641.21	-31.85
641.329	-177.85
641.448	-22.85
641.567	196.15
641.685	-108.85
641.804	-170.85
641.923	-136.85
642.041	-282.85
642.16	-113.85
642.279	65.15
642.398	-229.85
642.516	-271.85
642.635	138.15
642.754	-191.85
642.872	28.15
642.991	70.15
643.11	-230.85
643.228	-285.85
643.347	-336.85
643.466	-382.85
643.584	49.15
643.703	243.15
643.821	-128.85
643.94	-96.85
644.059	-49.85
644.177	76.15
644.296	-359.85
644.415	-225.85
644.533	-111.85
644.652	11.15
644.77	-392.85
644.889	-322.85
645.008	-25.85
645.126	-228.85
645.245	-15.85
645.363	23.15
645.482	-60.85
645.6	-144.85
645.719	-222.85
645.837	-230.85
645.956	-47.85
646.074	-288.85
646.193	-279.85
646.312	3.15
646.43	156.15
646.549	256.15
646.667	-453.85
646.786	-334.85
646.904	42.15
647.023	-2.85
647.141	-346.85
647.26	-14.85
647.378	435.15
647.496	-162.85
647.615	-72.85
647.733	-130.85
647.852	182.15
647.97	-198.85
648.089	12.15
648.207	-40.85
648.326	104.15
648.444	-133.85
648.562	-168.85
648.681	-110.85
648.799	-156.85
648.918	-86.85
649.036	-181.85
649.154	-250.85
649.273	55.15
649.391	-174.85
649.51	-317.85
649.628	-341.85
649.746	205.15
649.865	-223.85
649.983	-302.85
650.101	-115.85
650.22	-116.85
650.338	-201.85
650.456	-214.85
650.575	-251.85
650.693	-291.85
650.811	-3.85
650.93	-380.85
651.048	1105.15
651.166	329.15
651.285	-132.85
651.403	-24.85
651.521	-116.85
651.639	-90.85
651.758	-106.85
651.876	175.15
651.994	-327.85
652.112	99.15
652.231	-113.85
652.349	-307.85
652.467	-469.85
652.585	-94.85
652.704	17.15
652.822	-416.85
652.94	-397.85
653.058	-44.85
653.176	-227.85
653.295	-148.85
653.413	-32.85
653.531	-215.85
653.649	-144.85
653.767	-307.85
653.886	-330.85
654.004	-221.85
654.122	167.15
654.24	-373.85
654.358	-307.85
654.476	-141.85
654.594	181.15
654.713	-232.85
654.831	-401.85
654.949	-156.85
655.067	-3.85
655.185	-346.85
655.303	-261.85
655.421	-159.85
655.539	93.15
655.658	-162.85
655.776	-264.85
655.894	11.15
656.012	175.15
656.13	-404.85
656.248	-239.85
656.366	-259.85
656.484	-172.85
656.602	-322.85
656.72	-294.85
656.838	-35.85
656.956	-168.85
657.074	-56.85
657.192	-96.85
657.31	-242.85
657.428	-160.85
657.546	-134.85
657.664	-135.85
657.782	-103.85
657.9	84.15
658.018	-235.85
658.136	-173.85
658.254	71.15
658.372	101.15
658.49	-333.85
658.608	-322.85
658.726	-34.85
658.844	-0.85
658.962	-248.85
659.08	-365.85
659.198	-40.85
659.316	-90.85
