Data from HR4D30811__14__00014.txt Node

Date: Fri Jan 26 16:33:34 MST 2024
User: Brock
Spectrometer: HR4D3081
Trigger mode: 4
Integration Time (sec): 8.000000E0
Scans to average: 1
Electric dark correction enabled: true
Nonlinearity correction enabled: false
Boxcar width: 0
XAxis mode: Wavelengths
Number of Pixels in Spectrum: 3648
>>>>>Begin Spectral Data<<<<<
197.25	-1284.15
197.385	-1284.15
197.519	-1284.15
197.653	-1211.15
197.787	197.85
197.922	-136.15
198.056	68.85
198.19	-12.15
198.324	16.85
198.459	-210.15
198.593	412.85
198.727	-38.15
198.861	-73.15
198.996	206.85
199.13	-271.15
199.264	-203.15
199.398	-39.15
199.533	277.85
199.667	121.85
199.801	-39.15
199.935	-241.15
200.07	-42.15
200.204	-29.15
200.338	-170.15
200.472	-164.15
200.606	-343.15
200.741	-166.15
200.875	-149.15
201.009	-133.15
201.143	-228.15
201.277	93.85
201.412	109.85
201.546	231.85
201.68	152.85
201.814	-184.15
201.948	65.85
202.082	-62.15
202.217	-332.15
202.351	-138.15
202.485	-91.15
202.619	-251.15
202.753	-345.15
202.887	259.85
203.021	100.85
203.156	244.85
203.29	85.85
203.424	-35.15
203.558	-203.15
203.692	-88.15
203.826	-327.15
203.96	-113.15
204.094	171.85
204.229	-161.15
204.363	-184.15
204.497	-332.15
204.631	-282.15
204.765	-207.15
204.899	-146.15
205.033	-158.15
205.167	-220.15
205.301	-8.15
205.435	-309.15
205.569	-91.15
205.704	-90.15
205.838	-304.15
205.972	-146.15
206.106	510.85
206.24	-151.15
206.374	-229.15
206.508	26.85
206.642	26.85
206.776	-100.15
206.91	167.85
207.044	10.85
207.178	112.85
207.312	-17.15
207.446	-156.15
207.58	-160.15
207.714	-272.15
207.848	137.85
207.982	-354.15
208.116	32.85
208.25	-246.15
208.384	-163.15
208.518	-171.15
208.652	-235.15
208.786	-261.15
208.92	222.85
209.054	-55.15
209.188	-281.15
209.322	-124.15
209.456	-117.15
209.59	-268.15
209.724	-151.15
209.858	-38.15
209.992	-111.15
210.126	-168.15
210.26	-171.15
210.394	-65.15
210.528	-38.15
210.662	-190.15
210.796	-154.15
210.929	96.85
211.063	-7.15
211.197	-55.15
211.331	-32.15
211.465	-189.15
211.599	79.85
211.733	116.85
211.867	-196.15
212.001	-188.15
212.135	-62.15
212.269	-250.15
212.402	-215.15
212.536	73.85
212.67	-110.15
212.804	-263.15
212.938	75.85
213.072	-213.15
213.206	-86.15
213.34	-169.15
213.473	-144.15
213.607	90.85
213.741	-276.15
213.875	-285.15
214.009	-198.15
214.143	-153.15
214.277	-128.15
214.41	-238.15
214.544	222.85
214.678	138.85
214.812	271.85
214.946	-243.15
215.08	-179.15
215.213	-214.15
215.347	-140.15
215.481	-65.15
215.615	-340.15
215.749	11.85
215.882	-249.15
216.016	-295.15
216.15	74.85
216.284	181.85
216.418	-7.15
216.551	76.85
216.685	9.85
216.819	-275.15
216.953	-157.15
217.086	278.85
217.22	-181.15
217.354	7.85
217.488	79.85
217.621	93.85
217.755	-38.15
217.889	-137.15
218.023	-84.15
218.156	86.85
218.29	66.85
218.424	179.85
218.558	-247.15
218.691	-393.15
218.825	-144.15
218.959	381.85
219.092	-171.15
219.226	-321.15
219.36	-294.15
219.494	-51.15
219.627	-177.15
219.761	-230.15
219.895	-96.15
220.028	-280.15
220.162	532.85
220.296	116.85
220.429	-32.15
220.563	-93.15
220.697	-24.15
220.83	-210.15
220.964	-184.15
221.098	-274.15
221.231	-273.15
221.365	81.85
221.499	-236.15
221.632	-238.15
221.766	51.85
221.9	-102.15
222.033	54.85
222.167	80.85
222.3	-198.15
222.434	-28.15
222.568	239.85
222.701	-185.15
222.835	-130.15
222.968	-292.15
223.102	-229.15
223.236	-268.15
223.369	16.85
223.503	8.85
223.636	-232.15
223.77	-165.15
223.904	10.85
224.037	-181.15
224.171	82.85
224.304	22.85
224.438	-166.15
224.571	-107.15
224.705	145.85
224.839	-20.15
224.972	-335.15
225.106	-35.15
225.239	-67.15
225.373	71.85
225.506	-32.15
225.64	61.85
225.773	-152.15
225.907	-197.15
226.04	-291.15
226.174	-122.15
226.307	-62.15
226.441	-144.15
226.575	-4.15
226.708	141.85
226.842	-93.15
226.975	-146.15
227.109	-236.15
227.242	-8.15
227.375	9.85
227.509	-38.15
227.642	-192.15
227.776	55.85
227.909	43.85
228.043	-209.15
228.176	178.85
228.31	-259.15
228.443	309.85
228.577	-53.15
228.71	-111.15
228.844	-3.15
228.977	-280.15
229.111	-161.15
229.244	59.85
229.377	-292.15
229.511	-32.15
229.644	-171.15
229.778	-167.15
229.911	-203.15
230.044	-115.15
230.178	-37.15
230.311	-193.15
230.445	-5.15
230.578	-214.15
230.711	-77.15
230.845	341.85
230.978	41.85
231.112	-216.15
231.245	-258.15
231.378	-214.15
231.512	46.85
231.645	-437.15
231.779	-341.15
231.912	-76.15
232.045	49.85
232.179	-192.15
232.312	-141.15
232.445	90.85
232.579	243.85
232.712	114.85
232.845	-160.15
232.979	-353.15
233.112	47.85
233.245	-85.15
233.379	-277.15
233.512	-36.15
233.645	-273.15
233.779	-259.15
233.912	11.85
234.045	-170.15
234.179	-6.15
234.312	-136.15
234.445	26.85
234.578	-32.15
234.712	27.85
234.845	59.85
234.978	-170.15
235.112	-80.15
235.245	119.85
235.378	-191.15
235.511	-22.15
235.645	11.85
235.778	12.85
235.911	-177.15
236.044	-320.15
236.178	266.85
236.311	-263.15
236.444	-247.15
236.577	-240.15
236.711	-55.15
236.844	-403.15
236.977	-170.15
237.11	-193.15
237.243	26.85
237.377	-281.15
237.51	-218.15
237.643	952.85
237.776	-143.15
237.909	-150.15
238.043	-31.15
238.176	-243.15
238.309	-84.15
238.442	-319.15
238.575	-72.15
238.709	398.85
238.842	18.85
238.975	-42.15
239.108	144.85
239.241	-280.15
239.374	-227.15
239.508	-180.15
239.641	189.85
239.774	354.85
239.907	-71.15
240.04	-280.15
240.173	37.85
240.306	221.85
240.44	-164.15
240.573	151.85
240.706	-134.15
240.839	24.85
240.972	-69.15
241.105	-42.15
241.238	21.85
241.371	-37.15
241.504	-53.15
241.638	-128.15
241.771	-51.15
241.904	-160.15
242.037	59.85
242.17	-210.15
242.303	-287.15
242.436	-103.15
242.569	-110.15
242.702	-212.15
242.835	-188.15
242.968	-23.15
243.101	-131.15
243.234	-252.15
243.367	-272.15
243.5	-112.15
243.634	-212.15
243.767	-297.15
243.9	-222.15
244.033	-246.15
244.166	80.85
244.299	-339.15
244.432	-259.15
244.565	-11.15
244.698	-374.15
244.831	-179.15
244.964	-258.15
245.097	-221.15
245.23	2.85
245.363	146.85
245.496	-298.15
245.629	-154.15
245.762	442.85
245.895	-273.15
246.028	-219.15
246.161	410.85
246.294	33.85
246.427	-237.15
246.559	85.85
246.692	-74.15
246.825	-154.15
246.958	-245.15
247.091	-276.15
247.224	-346.15
247.357	-218.15
247.49	117.85
247.623	-194.15
247.756	-237.15
247.889	270.85
248.022	-110.15
248.155	-285.15
248.288	-88.15
248.421	-225.15
248.553	88.85
248.686	-225.15
248.819	90.85
248.952	-269.15
249.085	151.85
249.218	-49.15
249.351	-114.15
249.484	154.85
249.617	-89.15
249.749	-261.15
249.882	-222.15
250.015	-251.15
250.148	-156.15
250.281	-264.15
250.414	-169.15
250.547	-171.15
250.679	194.85
250.812	-108.15
250.945	-1.15
251.078	-264.15
251.211	-168.15
251.344	-273.15
251.476	-170.15
251.609	21.85
251.742	-288.15
251.875	-37.15
252.008	-223.15
252.14	-342.15
252.273	-117.15
252.406	179.85
252.539	-43.15
252.672	-76.15
252.804	151.85
252.937	-279.15
253.07	-31.15
253.203	-110.15
253.335	82.85
253.468	-369.15
253.601	-187.15
253.734	-67.15
253.866	-130.15
253.999	360.85
254.132	-10.15
254.265	-161.15
254.397	-180.15
254.53	-135.15
254.663	21.85
254.796	-201.15
254.928	-267.15
255.061	-228.15
255.194	-67.15
255.327	-310.15
255.459	-54.15
255.592	-286.15
255.725	191.85
255.857	-217.15
255.99	-6.15
256.123	-231.15
256.255	-261.15
256.388	-30.15
256.521	-247.15
256.653	-308.15
256.786	-254.15
256.919	-163.15
257.051	-247.15
257.184	-33.15
257.317	-204.15
257.449	-238.15
257.582	-100.15
257.715	-199.15
257.847	-233.15
257.98	-128.15
258.113	-193.15
258.245	-128.15
258.378	-366.15
258.51	-259.15
258.643	-248.15
258.776	32.85
258.908	-267.15
259.041	-37.15
259.174	-215.15
259.306	-218.15
259.439	-294.15
259.571	-187.15
259.704	-141.15
259.837	176.85
259.969	-222.15
260.102	-235.15
260.234	211.85
260.367	58.85
260.499	-241.15
260.632	-150.15
260.765	-212.15
260.897	-224.15
261.03	-238.15
261.162	-66.15
261.295	-60.15
261.427	99.85
261.56	-96.15
261.692	-256.15
261.825	-82.15
261.957	75.85
262.09	117.85
262.222	36.85
262.355	-278.15
262.487	-143.15
262.62	-284.15
262.752	-85.15
262.885	-178.15
263.017	23.85
263.15	-202.15
263.282	-86.15
263.415	-254.15
263.547	-34.15
263.68	201.85
263.812	-312.15
263.945	-115.15
264.077	-270.15
264.21	143.85
264.342	-263.15
264.475	-248.15
264.607	169.85
264.74	-391.15
264.872	-87.15
265.004	130.85
265.137	86.85
265.269	339.85
265.402	-249.15
265.534	-196.15
265.667	-177.15
265.799	76.85
265.931	-72.15
266.064	7.85
266.196	-155.15
266.329	-195.15
266.461	-175.15
266.593	9.85
266.726	-317.15
266.858	-142.15
266.99	-95.15
267.123	-147.15
267.255	-49.15
267.388	-125.15
267.52	-257.15
267.652	-211.15
267.785	149.85
267.917	-31.15
268.049	-132.15
268.182	400.85
268.314	59.85
268.446	-336.15
268.579	-225.15
268.711	199.85
268.843	-202.15
268.976	-95.15
269.108	366.85
269.24	150.85
269.373	-30.15
269.505	-173.15
269.637	-146.15
269.77	-215.15
269.902	150.85
270.034	-264.15
270.167	43.85
270.299	-2.15
270.431	7.85
270.563	-190.15
270.696	-9.15
270.828	-106.15
270.96	-79.15
271.092	2.85
271.225	-257.15
271.357	-74.15
271.489	-186.15
271.621	-256.15
271.754	525.85
271.886	-216.15
272.018	-203.15
272.15	243.85
272.283	-282.15
272.415	-176.15
272.547	60.85
272.679	74.85
272.811	-94.15
272.944	-105.15
273.076	-353.15
273.208	-21.15
273.34	-78.15
273.473	-132.15
273.605	69.85
273.737	-290.15
273.869	-38.15
274.001	-404.15
274.133	3.85
274.266	-206.15
274.398	1473.85
274.53	38.85
274.662	144.85
274.794	8.85
274.926	56.85
275.059	-195.15
275.191	-3.15
275.323	-238.15
275.455	94.85
275.587	-230.15
275.719	-163.15
275.851	-111.15
275.983	32.85
276.116	-24.15
276.248	61.85
276.38	-273.15
276.512	-26.15
276.644	-184.15
276.776	-237.15
276.908	-20.15
277.04	-117.15
277.172	53.85
277.304	-187.15
277.437	-16.15
277.569	-200.15
277.701	-234.15
277.833	-108.15
277.965	-190.15
278.097	61.85
278.229	-192.15
278.361	-188.15
278.493	147.85
278.625	217.85
278.757	20.85
278.889	-250.15
279.021	-176.15
279.153	505.85
279.285	-226.15
279.417	558.85
279.549	71.85
279.681	-103.15
279.813	-193.15
279.945	28.85
280.077	-231.15
280.209	1080.85
280.341	-278.15
280.473	-152.15
280.605	64.85
280.737	-29.15
280.869	192.85
281.001	-51.15
281.133	-327.15
281.265	-31.15
281.397	-139.15
281.529	279.85
281.661	-247.15
281.793	-372.15
281.925	-227.15
282.057	-124.15
282.189	-170.15
282.321	-33.15
282.453	23.85
282.585	-258.15
282.717	138.85
282.849	-76.15
282.98	-170.15
283.112	-210.15
283.244	-3.15
283.376	-255.15
283.508	-365.15
283.64	-248.15
283.772	90.85
283.904	104.85
284.036	-320.15
284.168	119.85
284.299	-51.15
284.431	-20.15
284.563	-134.15
284.695	-148.15
284.827	-244.15
284.959	-46.15
285.091	-235.15
285.222	-279.15
285.354	-192.15
285.486	-122.15
285.618	-228.15
285.75	-146.15
285.882	187.85
286.013	81.85
286.145	-61.15
286.277	-3.15
286.409	87.85
286.541	63.85
286.673	-215.15
286.804	-225.15
286.936	-75.15
287.068	-231.15
287.2	-235.15
287.332	299.85
287.463	-324.15
287.595	-56.15
287.727	428.85
287.859	-103.15
287.99	-131.15
288.122	-202.15
288.254	23.85
288.386	-160.15
288.517	-270.15
288.649	-141.15
288.781	-27.15
288.913	-26.15
289.044	-275.15
289.176	184.85
289.308	-183.15
289.44	-339.15
289.571	-223.15
289.703	-252.15
289.835	12.85
289.967	-252.15
290.098	-324.15
290.23	-289.15
290.362	86.85
290.493	-334.15
290.625	-198.15
290.757	-185.15
290.888	-120.15
291.02	-36.15
291.152	-36.15
291.283	-16.15
291.415	-152.15
291.547	-248.15
291.678	-223.15
291.81	-0.15
291.942	267.85
292.073	-34.15
292.205	-289.15
292.337	53.85
292.468	504.85
292.6	-209.15
292.732	615.85
292.863	-236.15
292.995	-319.15
293.126	24.85
293.258	172.85
293.39	-277.15
293.521	-268.15
293.653	-317.15
293.785	58.85
293.916	-146.15
294.048	34.85
294.179	-10.15
294.311	-257.15
294.442	40.85
294.574	-281.15
294.706	-121.15
294.837	83.85
294.969	-81.15
295.1	-199.15
295.232	-246.15
295.363	203.85
295.495	-201.15
295.627	5.85
295.758	106.85
295.89	-339.15
296.021	17.85
296.153	40.85
296.284	-67.15
296.416	-107.15
296.547	-160.15
296.679	-69.15
296.81	-39.15
296.942	-334.15
297.073	-266.15
297.205	-273.15
297.336	-184.15
297.468	-241.15
297.599	-87.15
297.731	-349.15
297.862	-115.15
297.994	-319.15
298.125	-254.15
298.257	-121.15
298.388	22.85
298.52	6.85
298.651	-96.15
298.782	271.85
298.914	-280.15
299.045	-154.15
299.177	-325.15
299.308	-324.15
299.44	7.85
299.571	-56.15
299.702	-127.15
299.834	-104.15
299.965	-151.15
300.097	-229.15
300.228	-33.15
300.36	-60.15
300.491	-73.15
300.622	-6.15
300.754	-117.15
300.885	-229.15
301.017	-60.15
301.148	-191.15
301.279	-313.15
301.411	-19.15
301.542	-71.15
301.673	-45.15
301.805	21.85
301.936	-235.15
302.067	-151.15
302.199	-168.15
302.33	-273.15
302.461	316.85
302.593	-6.15
302.724	-30.15
302.855	-301.15
302.987	-111.15
303.118	-295.15
303.249	-338.15
303.381	-136.15
303.512	-220.15
303.643	-194.15
303.775	97.85
303.906	-243.15
304.037	-251.15
304.169	-231.15
304.3	-146.15
304.431	-314.15
304.562	-186.15
304.694	-146.15
304.825	-72.15
304.956	132.85
305.087	-172.15
305.219	-1.15
305.35	-59.15
305.481	-202.15
305.612	29.85
305.744	24.85
305.875	-162.15
306.006	504.85
306.137	-207.15
306.269	-60.15
306.4	29.85
306.531	115.85
306.662	-140.15
306.794	106.85
306.925	-204.15
307.056	-286.15
307.187	-16.15
307.318	-117.15
307.45	-157.15
307.581	-244.15
307.712	-255.15
307.843	-119.15
307.974	-56.15
308.105	94.85
308.237	-74.15
308.368	-306.15
308.499	-181.15
308.63	-19.15
308.761	-124.15
308.892	-119.15
309.024	-145.15
309.155	-207.15
309.286	-190.15
309.417	-278.15
309.548	-178.15
309.679	-163.15
309.81	-388.15
309.941	464.85
310.073	-30.15
310.204	-344.15
310.335	-53.15
310.466	-183.15
310.597	-276.15
310.728	-152.15
310.859	357.85
310.99	285.85
311.121	-131.15
311.252	-103.15
311.383	-257.15
311.514	-21.15
311.646	-184.15
311.777	-31.15
311.908	-79.15
312.039	-144.15
312.17	-336.15
312.301	-121.15
312.432	-228.15
312.563	-349.15
312.694	-47.15
312.825	-168.15
312.956	-225.15
313.087	78.85
313.218	52.85
313.349	-150.15
313.48	-342.15
313.611	-110.15
313.742	-91.15
313.873	44.85
314.004	-85.15
314.135	-186.15
314.266	-48.15
314.397	-185.15
314.528	-292.15
314.659	-294.15
314.79	-211.15
314.921	55.85
315.052	27.85
315.183	-262.15
315.314	-316.15
315.445	40.85
315.576	-69.15
315.707	-128.15
315.838	-200.15
315.968	-33.15
316.099	-285.15
316.23	-314.15
316.361	53.85
316.492	-145.15
316.623	45.85
316.754	171.85
316.885	-379.15
317.016	-292.15
317.147	-368.15
317.278	80.85
317.408	-247.15
317.539	-308.15
317.67	-283.15
317.801	-14.15
317.932	-167.15
318.063	-218.15
318.194	-158.15
318.325	-13.15
318.455	-363.15
318.586	-159.15
318.717	-43.15
318.848	-331.15
318.979	89.85
319.11	244.85
319.24	5.85
319.371	63.85
319.502	-146.15
319.633	-205.15
319.764	-140.15
319.895	-243.15
320.025	-93.15
320.156	-276.15
320.287	-422.15
320.418	-217.15
320.549	-59.15
320.679	-337.15
320.81	123.85
320.941	-326.15
321.072	-309.15
321.202	-2.15
321.333	252.85
321.464	-374.15
321.595	-232.15
321.726	205.85
321.856	-346.15
321.987	-167.15
322.118	-228.15
322.249	-8.15
322.379	-98.15
322.51	-19.15
322.641	-96.15
322.771	-347.15
322.902	-91.15
323.033	-84.15
323.164	688.85
323.294	-174.15
323.425	-199.15
323.556	-218.15
323.686	-129.15
323.817	281.85
323.948	-14.15
324.078	-166.15
324.209	157.85
324.34	-195.15
324.47	183.85
324.601	-213.15
324.732	-75.15
324.862	22.85
324.993	-210.15
325.124	-431.15
325.254	-92.15
325.385	-52.15
325.516	507.85
325.646	402.85
325.777	-149.15
325.908	-171.15
326.038	39.85
326.169	-149.15
326.299	-62.15
326.43	115.85
326.561	-141.15
326.691	-141.15
326.822	-279.15
326.952	-230.15
327.083	-77.15
327.214	-231.15
327.344	-75.15
327.475	-36.15
327.605	-55.15
327.736	-150.15
327.867	-302.15
327.997	-153.15
328.128	-63.15
328.258	-325.15
328.389	252.85
328.519	-277.15
328.65	3.85
328.78	-224.15
328.911	-51.15
329.041	88.85
329.172	-341.15
329.303	-218.15
329.433	-171.15
329.564	-261.15
329.694	-263.15
329.825	-219.15
329.955	-46.15
330.086	435.85
330.216	-153.15
330.347	-269.15
330.477	-153.15
330.608	-137.15
330.738	-115.15
330.868	-296.15
330.999	-163.15
331.129	122.85
331.26	-246.15
331.39	-211.15
331.521	155.85
331.651	18.85
331.782	-347.15
331.912	-282.15
332.043	-264.15
332.173	56.85
332.303	-336.15
332.434	79.85
332.564	-32.15
332.695	-217.15
332.825	-329.15
332.956	-190.15
333.086	-92.15
333.216	-244.15
333.347	-66.15
333.477	-400.15
333.608	-85.15
333.738	6.85
333.868	-112.15
333.999	-84.15
334.129	82.85
334.259	-52.15
334.39	-230.15
334.52	49.85
334.65	-194.15
334.781	128.85
334.911	-212.15
335.042	-267.15
335.172	-57.15
335.302	-120.15
335.433	235.85
335.563	-264.15
335.693	9.85
335.824	236.85
335.954	-386.15
336.084	-41.15
336.214	-67.15
336.345	304.85
336.475	72.85
336.605	-234.15
336.736	343.85
336.866	-103.15
336.996	-179.15
337.126	-297.15
337.257	-85.15
337.387	-365.15
337.517	-232.15
337.648	-343.15
337.778	161.85
337.908	82.85
338.038	-6.15
338.169	-161.15
338.299	230.85
338.429	-39.15
338.559	-234.15
338.69	-182.15
338.82	364.85
338.95	-45.15
339.08	-451.15
339.21	-306.15
339.341	-110.15
339.471	38.85
339.601	-117.15
339.731	-43.15
339.861	-134.15
339.992	-140.15
340.122	-129.15
340.252	-194.15
340.382	-220.15
340.512	-101.15
340.642	142.85
340.773	-58.15
340.903	-303.15
341.033	-94.15
341.163	-43.15
341.293	95.85
341.423	-213.15
341.554	-293.15
341.684	-29.15
341.814	-133.15
341.944	-154.15
342.074	-100.15
342.204	-175.15
342.334	178.85
342.464	-259.15
342.595	-192.15
342.725	-286.15
342.855	-45.15
342.985	-165.15
343.115	-270.15
343.245	-382.15
343.375	-13.15
343.505	-108.15
343.635	-34.15
343.765	-227.15
343.895	-385.15
344.025	31.85
344.155	-303.15
344.286	-214.15
344.416	-70.15
344.546	79.85
344.676	-83.15
344.806	129.85
344.936	-52.15
345.066	196.85
345.196	-226.15
345.326	-299.15
345.456	84.85
345.586	-261.15
345.716	-278.15
345.846	0.85
345.976	-358.15
346.106	-123.15
346.236	47.85
346.366	0.85
346.496	-192.15
346.626	-177.15
346.756	-213.15
346.886	-263.15
347.016	-348.15
347.146	-229.15
347.276	-237.15
347.406	-215.15
347.536	-61.15
347.666	84.85
347.795	-251.15
347.925	-158.15
348.055	115.85
348.185	-175.15
348.315	-183.15
348.445	82.85
348.575	-191.15
348.705	-269.15
348.835	-281.15
348.965	-150.15
349.095	-15.15
349.225	253.85
349.354	-255.15
349.484	-178.15
349.614	-167.15
349.744	-243.15
349.874	-230.15
350.004	-352.15
350.134	-274.15
350.264	-330.15
350.393	-295.15
350.523	132.85
350.653	-333.15
350.783	52.85
350.913	114.85
351.043	-221.15
351.173	-196.15
351.302	-18.15
351.432	192.85
351.562	-111.15
351.692	-102.15
351.822	-167.15
351.951	-366.15
352.081	192.85
352.211	-105.15
352.341	157.85
352.471	132.85
352.6	-155.15
352.73	-207.15
352.86	-156.15
352.99	-53.15
353.12	-73.15
353.249	-32.15
353.379	-253.15
353.509	77.85
353.639	-296.15
353.768	-93.15
353.898	-198.15
354.028	-313.15
354.158	-175.15
354.287	-199.15
354.417	-281.15
354.547	-274.15
354.677	-372.15
354.806	-151.15
354.936	-9.15
355.066	-226.15
355.195	-28.15
355.325	-51.15
355.455	-231.15
355.584	187.85
355.714	-265.15
355.844	104.85
355.974	-15.15
356.103	-96.15
356.233	-175.15
356.363	45.85
356.492	-250.15
356.622	-311.15
356.752	-30.15
356.881	-364.15
357.011	53.85
357.14	115.85
357.27	-167.15
357.4	56.85
357.529	-149.15
357.659	111.85
357.789	3.85
357.918	-287.15
358.048	-319.15
358.177	-122.15
358.307	-241.15
358.437	-79.15
358.566	-256.15
358.696	70.85
358.825	115.85
358.955	-285.15
359.085	39.85
359.214	-407.15
359.344	-109.15
359.473	-298.15
359.603	-153.15
359.733	-230.15
359.862	-327.15
359.992	73.85
360.121	-196.15
360.251	3.85
360.38	-309.15
360.51	76.85
360.639	-165.15
360.769	-65.15
360.898	93.85
361.028	40.85
361.157	-79.15
361.287	-62.15
361.416	-283.15
361.546	-134.15
361.675	-140.15
361.805	-199.15
361.934	12.85
362.064	-160.15
362.193	-210.15
362.323	-305.15
362.452	83.85
362.582	-261.15
362.711	-167.15
362.841	9.85
362.97	-8.15
363.1	-266.15
363.229	-338.15
363.359	-130.15
363.488	-220.15
363.617	-114.15
363.747	-99.15
363.876	-373.15
364.006	-9.15
364.135	-116.15
364.265	-141.15
364.394	-186.15
364.523	265.85
364.653	-261.15
364.782	22.85
364.912	-253.15
365.041	-287.15
365.17	-261.15
365.3	57.85
365.429	186.85
365.558	-152.15
365.688	-224.15
365.817	-258.15
365.947	-64.15
366.076	-73.15
366.205	-85.15
366.335	-353.15
366.464	-266.15
366.593	94.85
366.723	-136.15
366.852	-103.15
366.981	-95.15
367.111	-261.15
367.24	-145.15
367.369	-150.15
367.499	503.85
367.628	86.85
367.757	-148.15
367.886	-53.15
368.016	92.85
368.145	-94.15
368.274	-84.15
368.404	-311.15
368.533	-107.15
368.662	-0.15
368.791	-214.15
368.921	-391.15
369.05	147.85
369.179	-74.15
369.308	301.85
369.438	-309.15
369.567	-376.15
369.696	-170.15
369.825	34.85
369.955	-187.15
370.084	-22.15
370.213	-100.15
370.342	-286.15
370.472	-301.15
370.601	410.85
370.73	35.85
370.859	-390.15
370.988	-164.15
371.118	-288.15
371.247	26.85
371.376	100.85
371.505	-102.15
371.634	-48.15
371.763	-127.15
371.893	-283.15
372.022	-190.15
372.151	-280.15
372.28	-324.15
372.409	-386.15
372.538	-190.15
372.667	-57.15
372.797	103.85
372.926	-354.15
373.055	-73.15
373.184	-120.15
373.313	-265.15
373.442	-19.15
373.571	-224.15
373.7	-151.15
373.83	-33.15
373.959	-417.15
374.088	-139.15
374.217	94.85
374.346	-172.15
374.475	-383.15
374.604	-259.15
374.733	265.85
374.862	-147.15
374.991	-268.15
375.12	-78.15
375.249	-91.15
375.378	-261.15
375.508	-338.15
375.637	-289.15
375.766	22.85
375.895	-173.15
376.024	150.85
376.153	-247.15
376.282	-132.15
376.411	-255.15
376.54	-457.15
376.669	-57.15
376.798	-192.15
376.927	-292.15
377.056	117.85
377.185	-90.15
377.314	104.85
377.443	248.85
377.572	-297.15
377.701	-302.15
377.83	167.85
377.959	-0.15
378.088	1666.85
378.217	124.85
378.346	-200.15
378.474	-345.15
378.603	-275.15
378.732	-59.15
378.861	-216.15
378.99	-271.15
379.119	-384.15
379.248	-86.15
379.377	-168.15
379.506	-199.15
379.635	135.85
379.764	-83.15
379.893	-241.15
380.022	-338.15
380.15	-77.15
380.279	-319.15
380.408	-242.15
380.537	-156.15
380.666	-41.15
380.795	-73.15
380.924	-164.15
381.053	-261.15
381.181	-82.15
381.31	734.85
381.439	-274.15
381.568	-173.15
381.697	-204.15
381.826	-138.15
381.955	-286.15
382.083	-124.15
382.212	-343.15
382.341	36.85
382.47	-247.15
382.599	-160.15
382.727	232.85
382.856	-47.15
382.985	5.85
383.114	-174.15
383.243	-225.15
383.371	-123.15
383.5	-273.15
383.629	-279.15
383.758	-263.15
383.887	-410.15
384.015	-97.15
384.144	-297.15
384.273	-111.15
384.402	-29.15
384.53	-275.15
384.659	-297.15
384.788	-275.15
384.917	-246.15
385.045	-92.15
385.174	-146.15
385.303	-398.15
385.432	17.85
385.56	-112.15
385.689	-199.15
385.818	-67.15
385.946	-21.15
386.075	-267.15
386.204	-280.15
386.332	-100.15
386.461	44.85
386.59	15.85
386.718	-324.15
386.847	-189.15
386.976	-196.15
387.104	-356.15
387.233	-308.15
387.362	-80.15
387.49	-101.15
387.619	-301.15
387.748	-170.15
387.876	144.85
388.005	-107.15
388.134	70.85
388.262	-340.15
388.391	-236.15
388.52	-14.15
388.648	-277.15
388.777	60.85
388.905	-257.15
389.034	-190.15
389.163	-290.15
389.291	-141.15
389.42	0.85
389.548	65.85
389.677	-133.15
389.805	-99.15
389.934	-4.15
390.063	-315.15
390.191	-343.15
390.32	-256.15
390.448	-142.15
390.577	-294.15
390.705	-330.15
390.834	-119.15
390.962	-325.15
391.091	-284.15
391.22	88.85
391.348	119.85
391.477	-26.15
391.605	-341.15
391.734	-211.15
391.862	-243.15
391.991	-304.15
392.119	-284.15
392.248	-156.15
392.376	-110.15
392.505	-161.15
392.633	-227.15
392.762	313.85
392.89	-313.15
393.018	24.85
393.147	-186.15
393.275	-366.15
393.404	-290.15
393.532	-209.15
393.661	-107.15
393.789	-74.15
393.918	-122.15
394.046	-133.15
394.174	-128.15
394.303	-331.15
394.431	-228.15
394.56	26.85
394.688	-340.15
394.817	-391.15
394.945	65.85
395.073	38.85
395.202	-74.15
395.33	-176.15
395.459	-138.15
395.587	91.85
395.715	27.85
395.844	-87.15
395.972	-406.15
396.1	73.85
396.229	-282.15
396.357	-73.15
396.485	-215.15
396.614	-249.15
396.742	75.85
396.87	-120.15
396.999	-8.15
397.127	-307.15
397.255	-70.15
397.384	51.85
397.512	-344.15
397.64	-264.15
397.769	-148.15
397.897	-46.15
398.025	-182.15
398.154	-62.15
398.282	212.85
398.41	-96.15
398.538	-97.15
398.667	-221.15
398.795	-248.15
398.923	23.85
399.052	-210.15
399.18	-204.15
399.308	-146.15
399.436	177.85
399.565	-278.15
399.693	-57.15
399.821	-118.15
399.949	-216.15
400.078	273.85
400.206	-324.15
400.334	-308.15
400.462	-168.15
400.59	-342.15
400.719	-223.15
400.847	-312.15
400.975	-62.15
401.103	-274.15
401.231	-115.15
401.36	-103.15
401.488	-67.15
401.616	-181.15
401.744	-164.15
401.872	-246.15
402	-28.15
402.129	-211.15
402.257	-298.15
402.385	-203.15
402.513	-136.15
402.641	-203.15
402.769	-167.15
402.897	-275.15
403.026	-335.15
403.154	-350.15
403.282	-312.15
403.41	-223.15
403.538	146.85
403.666	-330.15
403.794	-164.15
403.922	-84.15
404.05	-76.15
404.179	-156.15
404.307	-88.15
404.435	-308.15
404.563	-278.15
404.691	-378.15
404.819	452.85
404.947	-318.15
405.075	-261.15
405.203	-361.15
405.331	-247.15
405.459	-301.15
405.587	-78.15
405.715	-258.15
405.843	-219.15
405.971	-86.15
406.099	125.85
406.227	-16.15
406.355	-171.15
406.483	-379.15
406.611	-30.15
406.739	-311.15
406.867	-324.15
406.995	-218.15
407.123	-189.15
407.251	-404.15
407.379	-325.15
407.507	-71.15
407.635	-137.15
407.763	-421.15
407.891	-434.15
408.019	20.85
408.147	-3.15
408.275	158.85
408.403	-367.15
408.531	-388.15
408.659	190.85
408.787	-98.15
408.915	-245.15
409.043	-241.15
409.171	55.85
409.299	3.85
409.427	19.85
409.554	-388.15
409.682	287.85
409.81	-102.15
409.938	-234.15
410.066	18.85
410.194	-40.15
410.322	-284.15
410.45	-206.15
410.578	-350.15
410.705	-296.15
410.833	-101.15
410.961	68.85
411.089	324.85
411.217	-157.15
411.345	-194.15
411.473	-264.15
411.6	-95.15
411.728	-217.15
411.856	-327.15
411.984	-311.15
412.112	-78.15
412.239	-58.15
412.367	-182.15
412.495	73.85
412.623	-271.15
412.751	23.85
412.878	-375.15
413.006	-201.15
413.134	88.85
413.262	177.85
413.39	-56.15
413.517	-91.15
413.645	60.85
413.773	-352.15
413.901	192.85
414.028	-221.15
414.156	-161.15
414.284	-279.15
414.412	33.85
414.539	-211.15
414.667	-214.15
414.795	-224.15
414.923	-420.15
415.05	-211.15
415.178	-45.15
415.306	324.85
415.433	-245.15
415.561	50.85
415.689	19.85
415.816	-232.15
415.944	173.85
416.072	-324.15
416.2	-13.15
416.327	227.85
416.455	-289.15
416.583	-224.15
416.71	-277.15
416.838	158.85
416.966	-339.15
417.093	-192.15
417.221	48.85
417.348	-67.15
417.476	-344.15
417.604	-186.15
417.731	-171.15
417.859	54.85
417.987	-114.15
418.114	-293.15
418.242	33.85
418.369	-238.15
418.497	-339.15
418.625	132.85
418.752	-147.15
418.88	-264.15
419.007	163.85
419.135	-72.15
419.263	-236.15
419.39	10.85
419.518	50.85
419.645	22.85
419.773	639.85
419.9	1677.85
420.028	4226.85
420.155	4983.85
420.283	7030.85
420.41	7980.85
420.538	8824.85
420.666	9450.85
420.793	9618.85
420.921	8767.85
421.048	6995.85
421.176	4707.85
421.303	2445.85
421.431	702.85
421.558	-84.15
421.686	232.85
421.813	51.85
421.941	-176.15
422.068	-73.15
422.195	94.85
422.323	37.85
422.45	-315.15
422.578	-99.15
422.705	-220.15
422.833	-125.15
422.96	-280.15
423.088	-2.15
423.215	364.85
423.343	305.85
423.47	-61.15
423.597	222.85
423.725	-110.15
423.852	-112.15
423.98	-69.15
424.107	-374.15
424.234	-123.15
424.362	-215.15
424.489	-225.15
424.617	513.85
424.744	6.85
424.871	-316.15
424.999	-136.15
425.126	94.85
425.253	-45.15
425.381	-226.15
425.508	-330.15
425.636	13.85
425.763	-198.15
425.89	-224.15
426.018	-336.15
426.145	-183.15
426.272	-82.15
426.4	19.85
426.527	81.85
426.654	-319.15
426.781	-84.15
426.909	-101.15
427.036	-83.15
427.163	-390.15
427.291	-309.15
427.418	-179.15
427.545	-133.15
427.673	-352.15
427.8	-366.15
427.927	-292.15
428.054	-85.15
428.182	-166.15
428.309	-201.15
428.436	-258.15
428.563	-319.15
428.691	-71.15
428.818	-239.15
428.945	-24.15
429.072	-331.15
429.2	-67.15
429.327	-72.15
429.454	30.85
429.581	-140.15
429.708	-396.15
429.836	-270.15
429.963	-216.15
430.09	-228.15
430.217	-227.15
430.344	-294.15
430.472	-309.15
430.599	-22.15
430.726	-234.15
430.853	-148.15
430.98	-28.15
431.107	-282.15
431.235	-146.15
431.362	-59.15
431.489	-154.15
431.616	221.85
431.743	74.85
431.87	-356.15
431.997	-181.15
432.125	-93.15
432.252	-453.15
432.379	-197.15
432.506	-52.15
432.633	-231.15
432.76	-129.15
432.887	92.85
433.014	-189.15
433.141	-274.15
433.268	-43.15
433.395	-216.15
433.523	-181.15
433.65	-235.15
433.777	-219.15
433.904	-174.15
434.031	-376.15
434.158	-78.15
434.285	15.85
434.412	-355.15
434.539	-148.15
434.666	-348.15
434.793	-271.15
434.92	-284.15
435.047	8.85
435.174	-154.15
435.301	7.85
435.428	257.85
435.555	187.85
435.682	-94.15
435.809	-320.15
435.936	99.85
436.063	-239.15
436.19	116.85
436.317	-270.15
436.444	31.85
436.571	-252.15
436.698	-9.15
436.825	83.85
436.952	-41.15
437.079	-83.15
437.206	15.85
437.333	-310.15
437.46	-198.15
437.587	-116.15
437.714	-337.15
437.84	-165.15
437.967	-386.15
438.094	-342.15
438.221	50.85
438.348	-165.15
438.475	8020.85
438.602	-327.15
438.729	-418.15
438.856	-251.15
438.983	-312.15
439.109	-63.15
439.236	63.85
439.363	-422.15
439.49	-267.15
439.617	-152.15
439.744	-250.15
439.871	449.85
439.997	-284.15
440.124	-60.15
440.251	-79.15
440.378	-278.15
440.505	-213.15
440.632	76.85
440.758	141.85
440.885	267.85
441.012	-284.15
441.139	19.85
441.266	-339.15
441.392	-240.15
441.519	-300.15
441.646	-363.15
441.773	-75.15
441.9	236.85
442.026	-226.15
442.153	-119.15
442.28	-79.15
442.407	-287.15
442.533	-5.15
442.66	-55.15
442.787	-83.15
442.914	-278.15
443.04	-240.15
443.167	-160.15
443.294	-98.15
443.421	-95.15
443.547	-314.15
443.674	-124.15
443.801	-56.15
443.927	66.85
444.054	383.85
444.181	83.85
444.307	67.85
444.434	-59.15
444.561	-341.15
444.688	-367.15
444.814	22.85
444.941	-235.15
445.068	-306.15
445.194	219.85
445.321	-270.15
445.447	195.85
445.574	-385.15
445.701	-370.15
445.827	-190.15
445.954	-412.15
446.081	-21.15
446.207	-304.15
446.334	-148.15
446.461	-189.15
446.587	-424.15
446.714	-0.15
446.84	48.85
446.967	-274.15
447.094	-189.15
447.22	78.85
447.347	-168.15
447.473	-298.15
447.6	-99.15
447.726	-369.15
447.853	-108.15
447.98	-156.15
448.106	-81.15
448.233	-126.15
448.359	-251.15
448.486	-79.15
448.612	-239.15
448.739	-22.15
448.865	90.85
448.992	226.85
449.118	-223.15
449.245	-326.15
449.371	-309.15
449.498	-130.15
449.624	-21.15
449.751	-133.15
449.877	-288.15
450.004	-104.15
450.13	-122.15
450.257	-283.15
450.383	-179.15
450.51	-374.15
450.636	-252.15
450.763	-233.15
450.889	-263.15
451.016	-466.15
451.142	-71.15
451.269	-277.15
451.395	238.85
451.521	-203.15
451.648	-285.15
451.774	-98.15
451.901	-392.15
452.027	-155.15
452.154	54.85
452.28	-176.15
452.406	-284.15
452.533	-254.15
452.659	-333.15
452.785	-179.15
452.912	-299.15
453.038	-335.15
453.165	-63.15
453.291	106.85
453.417	159.85
453.544	-313.15
453.67	-227.15
453.796	77.85
453.923	-316.15
454.049	-249.15
454.175	-264.15
454.302	-200.15
454.428	-34.15
454.554	-113.15
454.681	-283.15
454.807	-288.15
454.933	268.85
455.06	-112.15
455.186	-178.15
455.312	88.85
455.439	68.85
455.565	-380.15
455.691	-324.15
455.817	-8.15
455.944	79.85
456.07	-154.15
456.196	-43.15
456.322	-413.15
456.449	-371.15
456.575	-162.15
456.701	-257.15
456.827	-300.15
456.954	-340.15
457.08	-270.15
457.206	-423.15
457.332	-143.15
457.459	-354.15
457.585	-292.15
457.711	-255.15
457.837	-16.15
457.963	-99.15
458.09	-288.15
458.216	-323.15
458.342	-165.15
458.468	-210.15
458.594	-196.15
458.721	-129.15
458.847	-97.15
458.973	-314.15
459.099	-221.15
459.225	-217.15
459.351	-216.15
459.477	-65.15
459.604	-334.15
459.73	-220.15
459.856	-315.15
459.982	-93.15
460.108	-420.15
460.234	-455.15
460.36	-202.15
460.486	-40.15
460.613	-308.15
460.739	42.85
460.865	-216.15
460.991	202.85
461.117	158.85
461.243	-301.15
461.369	-329.15
461.495	-235.15
461.621	-157.15
461.747	-84.15
461.873	-41.15
461.999	-306.15
462.125	-168.15
462.252	23.85
462.378	-106.15
462.504	-68.15
462.63	-119.15
462.756	-340.15
462.882	-253.15
463.008	-247.15
463.134	74.85
463.26	-355.15
463.386	-211.15
463.512	-124.15
463.638	-225.15
463.764	-338.15
463.89	-209.15
464.016	49.85
464.142	-58.15
464.268	-309.15
464.394	-232.15
464.52	-357.15
464.645	-119.15
464.771	-9.15
464.897	-258.15
465.023	-242.15
465.149	-96.15
465.275	-353.15
465.401	-278.15
465.527	78.85
465.653	-115.15
465.779	58.85
465.905	-349.15
466.031	-131.15
466.157	-297.15
466.282	-214.15
466.408	-270.15
466.534	-178.15
466.66	-425.15
466.786	-197.15
466.912	-114.15
467.038	-191.15
467.164	-201.15
467.289	-250.15
467.415	-185.15
467.541	-139.15
467.667	-168.15
467.793	-228.15
467.919	-72.15
468.045	137.85
468.17	-306.15
468.296	-177.15
468.422	-218.15
468.548	17.85
468.674	-387.15
468.799	-282.15
468.925	-237.15
469.051	-316.15
469.177	-404.15
469.303	-395.15
469.428	-9.15
469.554	-272.15
469.68	-275.15
469.806	-91.15
469.931	-164.15
470.057	357.85
470.183	-489.15
470.309	-264.15
470.434	122.85
470.56	-179.15
470.686	-109.15
470.812	-166.15
470.937	-314.15
471.063	-253.15
471.189	-71.15
471.315	66.85
471.44	-139.15
471.566	-196.15
471.692	80.85
471.817	-288.15
471.943	-140.15
472.069	-32.15
472.194	-176.15
472.32	-283.15
472.446	-32.15
472.571	-308.15
472.697	-297.15
472.823	-138.15
472.948	-349.15
473.074	-139.15
473.2	-206.15
473.325	-327.15
473.451	-205.15
473.577	-192.15
473.702	-437.15
473.828	-218.15
473.953	-364.15
474.079	-135.15
474.205	-357.15
474.33	-336.15
474.456	-240.15
474.581	190.85
474.707	-255.15
474.833	-280.15
474.958	-60.15
475.084	-2.15
475.209	-249.15
475.335	-289.15
475.46	-105.15
475.586	-186.15
475.712	-73.15
475.837	-216.15
475.963	-209.15
476.088	-362.15
476.214	-287.15
476.339	-233.15
476.465	-257.15
476.59	-361.15
476.716	104.85
476.841	-352.15
476.967	210.85
477.092	-215.15
477.218	-131.15
477.343	-289.15
477.469	217.85
477.594	-273.15
477.72	-329.15
477.845	-104.15
477.971	-248.15
478.096	-133.15
478.222	-220.15
478.347	3269.85
478.472	18.85
478.598	-274.15
478.723	-255.15
478.849	3.85
478.974	-74.15
479.1	-328.15
479.225	-115.15
479.35	-255.15
479.476	-37.15
479.601	-284.15
479.727	46.85
479.852	-296.15
479.977	-153.15
480.103	-165.15
480.228	158.85
480.354	-205.15
480.479	62.85
480.604	-254.15
480.73	-288.15
480.855	-439.15
480.98	38.85
481.106	-375.15
481.231	-378.15
481.356	-280.15
481.482	-421.15
481.607	-341.15
481.732	-472.15
481.858	-230.15
481.983	-309.15
482.108	-264.15
482.234	-408.15
482.359	-264.15
482.484	99.85
482.61	-301.15
482.735	-142.15
482.86	-376.15
482.985	-218.15
483.111	-191.15
483.236	-95.15
483.361	-235.15
483.486	-316.15
483.612	44.85
483.737	-417.15
483.862	-172.15
483.987	-63.15
484.113	-409.15
484.238	-54.15
484.363	-356.15
484.488	-240.15
484.614	-34.15
484.739	-218.15
484.864	48.85
484.989	385.85
485.114	-103.15
485.24	-170.15
485.365	-238.15
485.49	-431.15
485.615	-1.15
485.74	-181.15
485.865	-97.15
485.991	-119.15
486.116	-87.15
486.241	-377.15
486.366	-344.15
486.491	-72.15
486.616	-263.15
486.742	-225.15
486.867	-176.15
486.992	-328.15
487.117	-325.15
487.242	-311.15
487.367	-435.15
487.492	-225.15
487.617	-47.15
487.742	-171.15
487.868	-310.15
487.993	-36.15
488.118	-100.15
488.243	-106.15
488.368	-258.15
488.493	-405.15
488.618	-276.15
488.743	-229.15
488.868	-293.15
488.993	-187.15
489.118	-1.15
489.243	-163.15
489.368	-260.15
489.493	11.85
489.618	-155.15
489.743	-327.15
489.868	-164.15
489.993	-288.15
490.118	-412.15
490.243	344.85
490.368	-230.15
490.493	-43.15
490.618	-16.15
490.743	-428.15
490.868	-148.15
490.993	-164.15
491.118	-18.15
491.243	-333.15
491.368	-299.15
491.493	-13.15
491.618	-172.15
491.743	-233.15
491.868	-260.15
491.993	-207.15
492.118	-260.15
492.243	-154.15
492.368	-86.15
492.493	-262.15
492.618	122.85
492.743	-247.15
492.867	7.85
492.992	-143.15
493.117	-6.15
493.242	-264.15
493.367	-167.15
493.492	5.85
493.617	-288.15
493.742	64.85
493.867	-224.15
493.991	-415.15
494.116	-146.15
494.241	-140.15
494.366	-218.15
494.491	-55.15
494.616	57.85
494.74	-295.15
494.865	-385.15
494.99	-252.15
495.115	-223.15
495.24	-155.15
495.365	-245.15
495.489	-219.15
495.614	-86.15
495.739	-223.15
495.864	-250.15
495.989	-395.15
496.113	-1.15
496.238	-139.15
496.363	-275.15
496.488	-359.15
496.612	-17.15
496.737	-269.15
496.862	-220.15
496.987	-265.15
497.111	-340.15
497.236	-314.15
497.361	-330.15
497.486	74.85
497.61	-15.15
497.735	-181.15
497.86	-33.15
497.984	-46.15
498.109	-380.15
498.234	-286.15
498.359	-256.15
498.483	-157.15
498.608	-149.15
498.733	-231.15
498.857	-343.15
498.982	-164.15
499.107	-372.15
499.231	-149.15
499.356	-246.15
499.481	106.85
499.605	-514.15
499.73	-382.15
499.855	4.85
499.979	-297.15
500.104	-206.15
500.228	127.85
500.353	-228.15
500.478	-335.15
500.602	-116.15
500.727	78.85
500.852	-71.15
500.976	-436.15
501.101	-259.15
501.225	131.85
501.35	-331.15
501.474	-295.15
501.599	-22.15
501.724	-211.15
501.848	-203.15
501.973	102.85
502.097	-369.15
502.222	-411.15
502.346	-66.15
502.471	-124.15
502.595	-258.15
502.72	-368.15
502.844	-338.15
502.969	-201.15
503.094	125.85
503.218	-391.15
503.343	-278.15
503.467	-324.15
503.592	-241.15
503.716	-237.15
503.841	-106.15
503.965	176.85
504.089	-217.15
504.214	-362.15
504.338	-242.15
504.463	-2.15
504.587	-111.15
504.712	-174.15
504.836	-187.15
504.961	294.85
505.085	99.85
505.21	-276.15
505.334	-292.15
505.458	223.85
505.583	-349.15
505.707	-114.15
505.832	-242.15
505.956	-139.15
506.08	-315.15
506.205	-284.15
506.329	89.85
506.454	-387.15
506.578	-165.15
506.702	-313.15
506.827	98.85
506.951	-71.15
507.076	-167.15
507.2	-346.15
507.324	-39.15
507.449	61.85
507.573	-195.15
507.697	-271.15
507.822	-185.15
507.946	-198.15
508.07	-419.15
508.195	-231.15
508.319	-225.15
508.443	-138.15
508.567	-419.15
508.692	-361.15
508.816	-333.15
508.94	-187.15
509.065	-457.15
509.189	-74.15
509.313	-58.15
509.437	11.85
509.562	-234.15
509.686	-127.15
509.81	-229.15
509.935	-108.15
510.059	52.85
510.183	-316.15
510.307	-370.15
510.431	-12.15
510.556	-211.15
510.68	-287.15
510.804	-428.15
510.928	-171.15
511.053	-382.15
511.177	-362.15
511.301	-183.15
511.425	-237.15
511.549	-160.15
511.674	-174.15
511.798	-170.15
511.922	-70.15
512.046	143.85
512.17	-237.15
512.294	-361.15
512.419	-110.15
512.543	-47.15
512.667	-193.15
512.791	-316.15
512.915	-101.15
513.039	-212.15
513.163	-48.15
513.288	126.85
513.412	-251.15
513.536	26.85
513.66	-306.15
513.784	-180.15
513.908	-146.15
514.032	-145.15
514.156	12.85
514.28	-50.15
514.404	-188.15
514.528	-192.15
514.653	-48.15
514.777	-4.15
514.901	-92.15
515.025	95.85
515.149	-233.15
515.273	-84.15
515.397	-216.15
515.521	-197.15
515.645	-192.15
515.769	-307.15
515.893	-266.15
516.017	-272.15
516.141	-430.15
516.265	-251.15
516.389	-265.15
516.513	-179.15
516.637	-292.15
516.761	-482.15
516.885	-292.15
517.009	-203.15
517.133	-95.15
517.257	-264.15
517.381	-14.15
517.505	-52.15
517.629	111.85
517.753	-211.15
517.877	-352.15
518.001	-225.15
518.125	-230.15
518.248	-71.15
518.372	-181.15
518.496	-389.15
518.62	-96.15
518.744	-185.15
518.868	-130.15
518.992	-138.15
519.116	-327.15
519.24	403.85
519.364	2.85
519.488	-170.15
519.611	-422.15
519.735	-192.15
519.859	-208.15
519.983	-41.15
520.107	-248.15
520.231	2.85
520.355	-137.15
520.478	-287.15
520.602	-340.15
520.726	66.85
520.85	-218.15
520.974	3.85
521.098	-279.15
521.221	-333.15
521.345	76.85
521.469	-298.15
521.593	-204.15
521.717	38.85
521.84	-164.15
521.964	-276.15
522.088	-237.15
522.212	-216.15
522.335	-389.15
522.459	-288.15
522.583	192.85
522.707	-376.15
522.83	-442.15
522.954	-309.15
523.078	-275.15
523.202	-43.15
523.325	-251.15
523.449	-154.15
523.573	-159.15
523.697	-322.15
523.82	-198.15
523.944	-218.15
524.068	-194.15
524.191	-236.15
524.315	-405.15
524.439	-134.15
524.562	-4.15
524.686	-247.15
524.81	-311.15
524.933	-275.15
525.057	-265.15
525.181	-114.15
525.304	-375.15
525.428	89.85
525.552	-372.15
525.675	-149.15
525.799	-288.15
525.923	-147.15
526.046	-97.15
526.17	-410.15
526.293	-325.15
526.417	-170.15
526.541	-3.15
526.664	-222.15
526.788	-261.15
526.911	-73.15
527.035	-338.15
527.159	-245.15
527.282	-282.15
527.406	-318.15
527.529	-59.15
527.653	-362.15
527.776	-119.15
527.9	-274.15
528.024	-292.15
528.147	-236.15
528.271	8.85
528.394	12.85
528.518	10.85
528.641	-338.15
528.765	-134.15
528.888	-150.15
529.012	-115.15
529.135	-281.15
529.259	107.85
529.382	-239.15
529.506	-326.15
529.629	-72.15
529.753	-424.15
529.876	115.85
530	44.85
530.123	-157.15
530.247	-323.15
530.37	-271.15
530.493	-171.15
530.617	-332.15
530.74	5.85
530.864	-49.15
530.987	-373.15
531.111	-94.15
531.234	-300.15
531.357	29.85
531.481	-20.15
531.604	23.85
531.728	-390.15
531.851	-135.15
531.974	-104.15
532.098	-230.15
532.221	-293.15
532.345	-228.15
532.468	-375.15
532.591	132.85
532.715	-219.15
532.838	-247.15
532.961	-223.15
533.085	-299.15
533.208	-135.15
533.331	-391.15
533.455	6.85
533.578	-231.15
533.701	-102.15
533.825	4.85
533.948	-259.15
534.071	-249.15
534.195	-59.15
534.318	-325.15
534.441	-277.15
534.564	-72.15
534.688	-264.15
534.811	-12.15
534.934	-166.15
535.058	-104.15
535.181	36.85
535.304	-43.15
535.427	-318.15
535.551	-405.15
535.674	-217.15
535.797	-64.15
535.92	-23.15
536.043	-358.15
536.167	-365.15
536.29	-108.15
536.413	-119.15
536.536	-315.15
536.66	-240.15
536.783	-104.15
536.906	-180.15
537.029	-294.15
537.152	-265.15
537.275	-194.15
537.399	126.85
537.522	-423.15
537.645	-211.15
537.768	-234.15
537.891	-108.15
538.014	-173.15
538.138	-302.15
538.261	-252.15
538.384	-186.15
538.507	-360.15
538.63	-248.15
538.753	133.85
538.876	-111.15
538.999	-345.15
539.123	-80.15
539.246	193.85
539.369	209.85
539.492	-280.15
539.615	-357.15
539.738	171.85
539.861	-256.15
539.984	-180.15
540.107	-124.15
540.23	-240.15
540.353	-316.15
540.476	-480.15
540.599	-59.15
540.722	-346.15
540.846	-136.15
540.969	-423.15
541.092	-167.15
541.215	-374.15
541.338	-123.15
541.461	-352.15
541.584	-204.15
541.707	-171.15
541.83	-301.15
541.953	-135.15
542.076	-107.15
542.199	-172.15
542.322	108.85
542.445	116.85
542.567	-233.15
542.69	-133.15
542.813	-255.15
542.936	-75.15
543.059	-161.15
543.182	236.85
543.305	73.85
543.428	-152.15
543.551	-207.15
543.674	108.85
543.797	-50.15
543.92	-221.15
544.043	259.85
544.166	-334.15
544.288	-214.15
544.411	-74.15
544.534	-311.15
544.657	-148.15
544.78	-243.15
544.903	-90.15
545.026	-206.15
545.149	-318.15
545.271	-361.15
545.394	-272.15
545.517	-385.15
545.64	400.85
545.763	-245.15
545.886	-276.15
546.008	-111.15
546.131	-7.15
546.254	-163.15
546.377	-419.15
546.5	-43.15
546.623	-38.15
546.745	-350.15
546.868	-231.15
546.991	18.85
547.114	-174.15
547.236	-211.15
547.359	-296.15
547.482	-132.15
547.605	-279.15
547.728	-248.15
547.85	-347.15
547.973	-313.15
548.096	-212.15
548.219	-78.15
548.341	-246.15
548.464	-370.15
548.587	-190.15
548.709	-232.15
548.832	-154.15
548.955	253.85
549.078	-28.15
549.2	-276.15
549.323	-254.15
549.446	181.85
549.568	-179.15
549.691	-102.15
549.814	-73.15
549.936	-273.15
550.059	-204.15
550.182	-321.15
550.304	-412.15
550.427	-170.15
550.55	-253.15
550.672	-289.15
550.795	236.85
550.917	-300.15
551.04	-197.15
551.163	-107.15
551.285	47.85
551.408	24.85
551.531	311.85
551.653	-347.15
551.776	-103.15
551.898	-103.15
552.021	-126.15
552.143	-197.15
552.266	-191.15
552.389	-180.15
552.511	-375.15
552.634	-351.15
552.756	-315.15
552.879	207.85
553.001	28.85
553.124	-377.15
553.246	-313.15
553.369	48.85
553.492	-183.15
553.614	12.85
553.737	-481.15
553.859	-28.15
553.982	4.85
554.104	-148.15
554.227	-317.15
554.349	-193.15
554.472	-209.15
554.594	-468.15
554.716	28.85
554.839	-56.15
554.961	-115.15
555.084	-367.15
555.206	-136.15
555.329	-344.15
555.451	-372.15
555.574	-83.15
555.696	-346.15
555.819	-170.15
555.941	-166.15
556.063	-58.15
556.186	-213.15
556.308	-107.15
556.431	223.85
556.553	-12.15
556.675	-290.15
556.798	-215.15
556.92	-13.15
557.043	-281.15
557.165	-352.15
557.287	0.85
557.41	-202.15
557.532	-168.15
557.654	-221.15
557.777	28.85
557.899	-149.15
558.021	-208.15
558.144	66.85
558.266	83.85
558.388	267.85
558.511	-241.15
558.633	-183.15
558.755	-249.15
558.878	-278.15
559	-23.15
559.122	-431.15
559.244	-262.15
559.367	-201.15
559.489	19.85
559.611	105.85
559.734	-192.15
559.856	-137.15
559.978	-148.15
560.1	-177.15
560.223	-176.15
560.345	50.85
560.467	-352.15
560.589	-234.15
560.712	-198.15
560.834	225.85
560.956	-357.15
561.078	-209.15
561.2	-117.15
561.323	81.85
561.445	-375.15
561.567	-256.15
561.689	-331.15
561.811	-67.15
561.934	-243.15
562.056	-174.15
562.178	-80.15
562.3	-223.15
562.422	-90.15
562.544	-191.15
562.666	-12.15
562.789	-113.15
562.911	-142.15
563.033	-19.15
563.155	-37.15
563.277	-266.15
563.399	-441.15
563.521	-230.15
563.643	-298.15
563.766	-185.15
563.888	27.85
564.01	-153.15
564.132	-342.15
564.254	-384.15
564.376	80.85
564.498	-149.15
564.62	131.85
564.742	-122.15
564.864	-408.15
564.986	-131.15
565.108	277.85
565.23	-278.15
565.352	-56.15
565.474	-106.15
565.597	166.85
565.719	112.85
565.841	-339.15
565.963	-106.15
566.085	-106.15
566.207	-190.15
566.329	28.85
566.451	27.85
566.573	-224.15
566.695	-213.15
566.817	130.85
566.938	-338.15
567.06	-198.15
567.182	-103.15
567.304	-197.15
567.426	-353.15
567.548	35.85
567.67	-96.15
567.792	-207.15
567.914	-280.15
568.036	-179.15
568.158	-131.15
568.28	-303.15
568.402	-29.15
568.524	-198.15
568.646	-265.15
568.767	-248.15
568.889	42.85
569.011	-189.15
569.133	-240.15
569.255	-397.15
569.377	-336.15
569.499	-129.15
569.621	-229.15
569.742	196.85
569.864	13.85
569.986	298.85
570.108	-8.15
570.23	-332.15
570.352	98.85
570.473	-99.15
570.595	-188.15
570.717	-352.15
570.839	-149.15
570.961	3.85
571.082	-196.15
571.204	-286.15
571.326	-293.15
571.448	7.85
571.57	7.85
571.691	-163.15
571.813	-123.15
571.935	29.85
572.057	-154.15
572.178	-298.15
572.3	80.85
572.422	139.85
572.544	148.85
572.665	-267.15
572.787	-326.15
572.909	98.85
573.031	-39.15
573.152	-334.15
573.274	-50.15
573.396	-15.15
573.517	-44.15
573.639	-448.15
573.761	-271.15
573.882	-142.15
574.004	-46.15
574.126	-292.15
574.247	-41.15
574.369	-35.15
574.491	-150.15
574.612	-326.15
574.734	-182.15
574.856	-152.15
574.977	-2.15
575.099	-104.15
575.221	-146.15
575.342	-152.15
575.464	-112.15
575.585	-71.15
575.707	-343.15
575.829	80.85
575.95	37.85
576.072	-237.15
576.193	-287.15
576.315	-195.15
576.437	-155.15
576.558	-212.15
576.68	-202.15
576.801	203.85
576.923	-317.15
577.044	82.85
577.166	-414.15
577.287	-124.15
577.409	-210.15
577.531	-200.15
577.652	-72.15
577.774	-377.15
577.895	-134.15
578.017	-318.15
578.138	-300.15
578.26	-192.15
578.381	-82.15
578.503	-276.15
578.624	-262.15
578.746	-365.15
578.867	-181.15
578.988	-86.15
579.11	107.85
579.231	-95.15
579.353	-236.15
579.474	-163.15
579.596	-238.15
579.717	43.85
579.839	-117.15
579.96	-451.15
580.081	-99.15
580.203	-201.15
580.324	-79.15
580.446	-38.15
580.567	-130.15
580.688	166.85
580.81	-301.15
580.931	-233.15
581.053	-382.15
581.174	-152.15
581.295	-239.15
581.417	-88.15
581.538	-46.15
581.659	-45.15
581.781	-135.15
581.902	-236.15
582.024	-337.15
582.145	-299.15
582.266	-294.15
582.388	-169.15
582.509	-334.15
582.63	-146.15
582.751	-234.15
582.873	-217.15
582.994	-214.15
583.115	-175.15
583.237	-113.15
583.358	-266.15
583.479	-418.15
583.6	36.85
583.722	-184.15
583.843	-326.15
583.964	-34.15
584.086	-216.15
584.207	-38.15
584.328	-352.15
584.449	-86.15
584.57	-106.15
584.692	-167.15
584.813	809.85
584.934	-145.15
585.055	-292.15
585.177	-30.15
585.298	-128.15
585.419	-369.15
585.54	183.85
585.661	-56.15
585.783	-137.15
585.904	-283.15
586.025	65.85
586.146	-295.15
586.267	-240.15
586.388	-195.15
586.51	260.85
586.631	-303.15
586.752	-375.15
586.873	-234.15
586.994	-341.15
587.115	-317.15
587.236	-262.15
587.357	-402.15
587.479	-313.15
587.6	61.85
587.721	-251.15
587.842	-308.15
587.963	158.85
588.084	77.85
588.205	-302.15
588.326	-252.15
588.447	-128.15
588.568	-194.15
588.689	-159.15
588.81	-99.15
588.931	-201.15
589.052	-243.15
589.174	-313.15
589.295	-73.15
589.416	-131.15
589.537	40.85
589.658	-250.15
589.779	-383.15
589.9	57.85
590.021	-238.15
590.142	-261.15
590.263	-401.15
590.384	-159.15
590.505	181.85
590.626	-300.15
590.747	-130.15
590.867	-53.15
590.988	-63.15
591.109	-208.15
591.23	44.85
591.351	-7.15
591.472	-158.15
591.593	-233.15
591.714	-153.15
591.835	-244.15
591.956	-211.15
592.077	-402.15
592.198	-179.15
592.319	-100.15
592.44	-17.15
592.56	-284.15
592.681	-393.15
592.802	-72.15
592.923	-170.15
593.044	-308.15
593.165	-322.15
593.286	-47.15
593.407	-278.15
593.527	17.85
593.648	-293.15
593.769	-90.15
593.89	96.85
594.011	-154.15
594.132	-255.15
594.252	-99.15
594.373	-313.15
594.494	-393.15
594.615	-204.15
594.736	-236.15
594.856	48.85
594.977	-346.15
595.098	-113.15
595.219	-322.15
595.34	-92.15
595.46	-363.15
595.581	147.85
595.702	-169.15
595.823	-351.15
595.943	-104.15
596.064	-218.15
596.185	126.85
596.306	-393.15
596.426	-299.15
596.547	-342.15
596.668	-75.15
596.788	-104.15
596.909	-162.15
597.03	-105.15
597.151	-153.15
597.271	-269.15
597.392	-223.15
597.513	-79.15
597.633	-0.15
597.754	-116.15
597.875	-199.15
597.995	84.85
598.116	-102.15
598.237	-199.15
598.357	-314.15
598.478	-281.15
598.599	194.85
598.719	-154.15
598.84	-352.15
598.96	-287.15
599.081	-132.15
599.202	-181.15
599.322	-319.15
599.443	-339.15
599.563	-69.15
599.684	48.85
599.805	-241.15
599.925	-372.15
600.046	251.85
600.166	-179.15
600.287	-103.15
600.407	-156.15
600.528	34.85
600.649	-30.15
600.769	-162.15
600.89	-394.15
601.01	-18.15
601.131	-245.15
601.251	170.85
601.372	-132.15
601.492	-226.15
601.613	-264.15
601.733	-265.15
601.854	176.85
601.974	328.85
602.095	142.85
602.215	-379.15
602.336	-346.15
602.456	240.85
602.577	-245.15
602.697	676.85
602.817	-37.15
602.938	-109.15
603.058	-40.15
603.179	-331.15
603.299	-313.15
603.42	-373.15
603.54	-71.15
603.66	-323.15
603.781	-101.15
603.901	-208.15
604.022	98.85
604.142	-156.15
604.262	-172.15
604.383	-272.15
604.503	125.85
604.624	-285.15
604.744	-124.15
604.864	-59.15
604.985	-201.15
605.105	-131.15
605.225	-154.15
605.346	-118.15
605.466	3.85
605.586	190.85
605.707	312.85
605.827	-311.15
605.947	-201.15
606.068	-213.15
606.188	-202.15
606.308	-240.15
606.429	38.85
606.549	-236.15
606.669	-348.15
606.789	-275.15
606.91	-47.15
607.03	-284.15
607.15	-233.15
607.27	-82.15
607.391	17.85
607.511	-279.15
607.631	-295.15
607.751	103.85
607.872	-35.15
607.992	-327.15
608.112	18.85
608.232	-259.15
608.353	-313.15
608.473	-255.15
608.593	99.85
608.713	299.85
608.833	-148.15
608.954	-291.15
609.074	-231.15
609.194	-314.15
609.314	195.85
609.434	-57.15
609.554	-167.15
609.675	-56.15
609.795	-258.15
609.915	-294.15
610.035	256.85
610.155	-162.15
610.275	-238.15
610.395	-36.15
610.516	-378.15
610.636	-138.15
610.756	-59.15
610.876	-59.15
610.996	-320.15
611.116	141.85
611.236	-319.15
611.356	-286.15
611.476	-160.15
611.596	-92.15
611.716	132.85
611.836	-337.15
611.957	-333.15
612.077	-132.15
612.197	-72.15
612.317	-290.15
612.437	48.85
612.557	53.85
612.677	-155.15
612.797	-132.15
612.917	-348.15
613.037	-46.15
613.157	-122.15
613.277	-138.15
613.397	110.85
613.517	147.85
613.637	-223.15
613.757	-169.15
613.877	-278.15
613.997	-83.15
614.117	-249.15
614.237	-215.15
614.356	-132.15
614.476	32.85
614.596	12.85
614.716	-220.15
614.836	-189.15
614.956	-58.15
615.076	-99.15
615.196	-331.15
615.316	-121.15
615.436	-57.15
615.556	139.85
615.676	171.85
615.795	-92.15
615.915	-100.15
616.035	-221.15
616.155	-153.15
616.275	-291.15
616.395	-234.15
616.515	-17.15
616.635	-418.15
616.754	-442.15
616.874	0.85
616.994	-138.15
617.114	237.85
617.234	29.85
617.354	9.85
617.473	369.85
617.593	-239.15
617.713	-147.15
617.833	-34.15
617.953	-66.15
618.072	-462.15
618.192	-248.15
618.312	84.85
618.432	77.85
618.551	-294.15
618.671	-266.15
618.791	3.85
618.911	-86.15
619.03	-197.15
619.15	-142.15
619.27	-180.15
619.39	-219.15
619.509	-161.15
619.629	-205.15
619.749	-276.15
619.868	-129.15
619.988	-377.15
620.108	-221.15
620.228	728.85
620.347	-85.15
620.467	-263.15
620.587	-319.15
620.706	76.85
620.826	-242.15
620.946	-295.15
621.065	-18.15
621.185	288.85
621.305	-214.15
621.424	-218.15
621.544	-419.15
621.663	-34.15
621.783	-208.15
621.903	227.85
622.022	-329.15
622.142	-130.15
622.261	175.85
622.381	-145.15
622.501	-30.15
622.62	-173.15
622.74	-91.15
622.859	-201.15
622.979	97.85
623.099	-185.15
623.218	-38.15
623.338	114.85
623.457	-91.15
623.577	-224.15
623.696	-86.15
623.816	-393.15
623.935	-289.15
624.055	-254.15
624.174	-129.15
624.294	-185.15
624.413	-370.15
624.533	-64.15
624.652	75.85
624.772	-286.15
624.891	-373.15
625.011	23.85
625.13	-206.15
625.25	-396.15
625.369	-253.15
625.489	-190.15
625.608	-269.15
625.728	-168.15
625.847	-163.15
625.966	-272.15
626.086	-247.15
626.205	-344.15
626.325	-116.15
626.444	-108.15
626.564	187.85
626.683	45.85
626.802	-3.15
626.922	138.85
627.041	-32.15
627.161	-163.15
627.28	3.85
627.399	18.85
627.519	-92.15
627.638	-412.15
627.757	-290.15
627.877	-154.15
627.996	-153.15
628.115	-30.15
628.235	-31.15
628.354	-322.15
628.473	-98.15
628.593	96.85
628.712	-126.15
628.831	-88.15
628.951	-299.15
629.07	65.85
629.189	-134.15
629.309	-148.15
629.428	156.85
629.547	-350.15
629.666	-32.15
629.786	-111.15
629.905	-294.15
630.024	-49.15
630.143	-74.15
630.263	-168.15
630.382	208.85
630.501	-235.15
630.62	-239.15
630.74	-299.15
630.859	88.85
630.978	-170.15
631.097	-364.15
631.216	-293.15
631.336	146.85
631.455	-264.15
631.574	-217.15
631.693	-34.15
631.812	-165.15
631.932	-433.15
632.051	69.85
632.17	334.85
632.289	18.85
632.408	-255.15
632.527	-133.15
632.646	-112.15
632.766	-228.15
632.885	179.85
633.004	-378.15
633.123	-139.15
633.242	-241.15
633.361	619.85
633.48	-295.15
633.599	-236.15
633.718	29.85
633.838	-115.15
633.957	-380.15
634.076	-62.15
634.195	-162.15
634.314	-70.15
634.433	-20.15
634.552	-204.15
634.671	-93.15
634.79	178.85
634.909	42.85
635.028	-60.15
635.147	-1.15
635.266	-313.15
635.385	-131.15
635.504	-279.15
635.623	-30.15
635.742	-372.15
635.861	-345.15
635.98	-78.15
636.099	-243.15
636.218	-176.15
636.337	-130.15
636.456	296.85
636.575	12.85
636.694	-156.15
636.813	-375.15
636.932	-320.15
637.051	-76.15
637.17	-411.15
637.289	-107.15
637.408	-310.15
637.526	-112.15
637.645	-482.15
637.764	-361.15
637.883	-204.15
638.002	56.85
638.121	347.85
638.24	-300.15
638.359	37.85
638.478	-195.15
638.597	-318.15
638.715	369.85
638.834	-142.15
638.953	38.85
639.072	-314.15
639.191	-392.15
639.31	30.85
639.428	-119.15
639.547	-101.15
639.666	-38.15
639.785	-40.15
639.904	-117.15
640.023	-363.15
640.141	-229.15
640.26	-170.15
640.379	-13.15
640.498	-421.15
640.616	-127.15
640.735	-129.15
640.854	36.85
640.973	-324.15
641.092	-49.15
641.21	-24.15
641.329	-171.15
641.448	-25.15
641.567	205.85
641.685	-139.15
641.804	-176.15
641.923	-142.15
642.041	-273.15
642.16	-183.15
642.279	90.85
642.398	-227.15
642.516	-272.15
642.635	131.85
642.754	-179.15
642.872	16.85
642.991	26.85
643.11	-218.15
643.228	-286.15
643.347	-371.15
643.466	-370.15
643.584	48.85
643.703	257.85
643.821	-149.15
643.94	-124.15
644.059	-31.15
644.177	58.85
644.296	-323.15
644.415	-266.15
644.533	-92.15
644.652	-2.15
644.77	-387.15
644.889	-348.15
645.008	9.85
645.126	-249.15
645.245	-34.15
645.363	6.85
645.482	-80.15
645.6	-143.15
645.719	-218.15
645.837	-236.15
645.956	-56.15
646.074	-312.15
646.193	-315.15
646.312	-0.15
646.43	137.85
646.549	237.85
646.667	-461.15
646.786	-336.15
646.904	25.85
647.023	-16.15
647.141	-334.15
647.26	-14.15
647.378	407.85
647.496	-173.15
647.615	-79.15
647.733	-95.15
647.852	186.85
647.97	-222.15
648.089	8.85
648.207	-38.15
648.326	116.85
648.444	-150.15
648.562	-187.15
648.681	-89.15
648.799	-157.15
648.918	-86.15
649.036	-124.15
649.154	-262.15
649.273	61.85
649.391	-178.15
649.51	-300.15
649.628	-345.15
649.746	171.85
649.865	-201.15
649.983	-287.15
650.101	-128.15
650.22	-116.15
650.338	-206.15
650.456	-235.15
650.575	-262.15
650.693	-302.15
650.811	-24.15
650.93	-387.15
651.048	1027.85
651.166	297.85
651.285	-109.15
651.403	-48.15
651.521	-131.15
651.639	-129.15
651.758	70.85
651.876	180.85
651.994	-331.15
652.112	80.85
652.231	-108.15
652.349	-295.15
652.467	-465.15
652.585	-119.15
652.704	14.85
652.822	-423.15
652.94	-379.15
653.058	-44.15
653.176	-211.15
653.295	-163.15
653.413	-32.15
653.531	-225.15
653.649	-150.15
653.767	-307.15
653.886	-318.15
654.004	-233.15
654.122	129.85
654.24	-384.15
654.358	-313.15
654.476	-120.15
654.594	191.85
654.713	-232.15
654.831	-405.15
654.949	-139.15
655.067	-16.15
655.185	-343.15
655.303	-258.15
655.421	-150.15
655.539	122.85
655.658	-159.15
655.776	-234.15
655.894	-3.15
656.012	164.85
656.13	-405.15
656.248	-240.15
656.366	-253.15
656.484	-175.15
656.602	-311.15
656.72	-275.15
656.838	-73.15
656.956	-141.15
657.074	-63.15
657.192	-102.15
657.31	-248.15
657.428	-155.15
657.546	-119.15
657.664	-138.15
657.782	-122.15
657.9	114.85
658.018	-231.15
658.136	-211.15
658.254	53.85
658.372	121.85
658.49	-330.15
658.608	-310.15
658.726	-30.15
658.844	7.85
658.962	-267.15
659.08	-373.15
659.198	-41.15
659.316	-104.15
