Data from HR4D30811__12__00012.txt Node

Date: Fri Jan 26 16:33:02 MST 2024
User: Brock
Spectrometer: HR4D3081
Trigger mode: 4
Integration Time (sec): 8.000000E0
Scans to average: 1
Electric dark correction enabled: true
Nonlinearity correction enabled: false
Boxcar width: 0
XAxis mode: Wavelengths
Number of Pixels in Spectrum: 3648
>>>>>Begin Spectral Data<<<<<
197.25	-1282.23
197.385	-1282.23
197.519	-1282.23
197.653	-1229.23
197.787	186.77
197.922	-128.23
198.056	73.77
198.19	-0.23
198.324	32.77
198.459	-190.23
198.593	420.77
198.727	-13.23
198.861	-87.23
198.996	198.77
199.13	-292.23
199.264	-189.23
199.398	-80.23
199.533	254.77
199.667	116.77
199.801	-64.23
199.935	-251.23
200.07	-11.23
200.204	8.77
200.338	-187.23
200.472	-169.23
200.606	-344.23
200.741	-172.23
200.875	-124.23
201.009	-114.23
201.143	-204.23
201.277	92.77
201.412	86.77
201.546	220.77
201.68	168.77
201.814	-189.23
201.948	27.77
202.082	-84.23
202.217	-325.23
202.351	-155.23
202.485	-15.23
202.619	-245.23
202.753	-355.23
202.887	280.77
203.021	130.77
203.156	233.77
203.29	41.77
203.424	-36.23
203.558	-201.23
203.692	-59.23
203.826	-300.23
203.96	-127.23
204.094	167.77
204.229	-170.23
204.363	-189.23
204.497	-321.23
204.631	-271.23
204.765	-214.23
204.899	-107.23
205.033	-148.23
205.167	-233.23
205.301	-2.23
205.435	-314.23
205.569	-90.23
205.704	-65.23
205.838	-309.23
205.972	-139.23
206.106	525.77
206.24	-150.23
206.374	-219.23
206.508	8.77
206.642	24.77
206.776	-120.23
206.91	182.77
207.044	20.77
207.178	124.77
207.312	4.77
207.446	-136.23
207.58	-181.23
207.714	-284.23
207.848	155.77
207.982	-358.23
208.116	-0.23
208.25	-261.23
208.384	-146.23
208.518	-184.23
208.652	-236.23
208.786	-252.23
208.92	222.77
209.054	-69.23
209.188	-281.23
209.322	-118.23
209.456	-110.23
209.59	-274.23
209.724	-94.23
209.858	-44.23
209.992	-83.23
210.126	-178.23
210.26	-170.23
210.394	-88.23
210.528	-31.23
210.662	-213.23
210.796	-152.23
210.929	145.77
211.063	-4.23
211.197	-58.23
211.331	-5.23
211.465	-208.23
211.599	51.77
211.733	106.77
211.867	-201.23
212.001	-179.23
212.135	-35.23
212.269	-231.23
212.402	-217.23
212.536	101.77
212.67	-137.23
212.804	-232.23
212.938	32.77
213.072	-210.23
213.206	-115.23
213.34	-166.23
213.473	-172.23
213.607	82.77
213.741	-261.23
213.875	-306.23
214.009	-232.23
214.143	-131.23
214.277	-129.23
214.41	-210.23
214.544	211.77
214.678	126.77
214.812	263.77
214.946	-252.23
215.08	-175.23
215.213	-196.23
215.347	-93.23
215.481	-99.23
215.615	-326.23
215.749	10.77
215.882	-247.23
216.016	-296.23
216.15	102.77
216.284	199.77
216.418	-19.23
216.551	86.77
216.685	9.77
216.819	-255.23
216.953	-141.23
217.086	256.77
217.22	-158.23
217.354	-14.23
217.488	79.77
217.621	88.77
217.755	1.77
217.889	-121.23
218.023	-51.23
218.156	85.77
218.29	70.77
218.424	175.77
218.558	-256.23
218.691	-368.23
218.825	-135.23
218.959	397.77
219.092	-134.23
219.226	-315.23
219.36	-314.23
219.494	-64.23
219.627	-190.23
219.761	-209.23
219.895	-134.23
220.028	-319.23
220.162	541.77
220.296	120.77
220.429	-7.23
220.563	-83.23
220.697	-34.23
220.83	-216.23
220.964	-159.23
221.098	-291.23
221.231	-246.23
221.365	70.77
221.499	-206.23
221.632	-235.23
221.766	33.77
221.9	-102.23
222.033	67.77
222.167	120.77
222.3	-186.23
222.434	-29.23
222.568	243.77
222.701	-158.23
222.835	-136.23
222.968	-210.23
223.102	-197.23
223.236	-263.23
223.369	30.77
223.503	-14.23
223.636	-223.23
223.77	-154.23
223.904	-27.23
224.037	-160.23
224.171	57.77
224.304	23.77
224.438	-194.23
224.571	-116.23
224.705	165.77
224.839	-62.23
224.972	-338.23
225.106	-23.23
225.239	-100.23
225.373	89.77
225.506	-41.23
225.64	52.77
225.773	-124.23
225.907	-164.23
226.04	-335.23
226.174	-121.23
226.307	-56.23
226.441	-122.23
226.575	9.77
226.708	132.77
226.842	-101.23
226.975	-179.23
227.109	-221.23
227.242	-3.23
227.375	53.77
227.509	-57.23
227.642	-137.23
227.776	32.77
227.909	57.77
228.043	-241.23
228.176	186.77
228.31	-257.23
228.443	306.77
228.577	-40.23
228.71	-145.23
228.844	6.77
228.977	-262.23
229.111	-157.23
229.244	64.77
229.377	-312.23
229.511	-25.23
229.644	-195.23
229.778	-167.23
229.911	-206.23
230.044	-140.23
230.178	-25.23
230.311	-206.23
230.445	27.77
230.578	-222.23
230.711	-83.23
230.845	295.77
230.978	27.77
231.112	-248.23
231.245	-258.23
231.378	-235.23
231.512	70.77
231.645	-393.23
231.779	-317.23
231.912	-40.23
232.045	40.77
232.179	-172.23
232.312	-148.23
232.445	91.77
232.579	228.77
232.712	121.77
232.845	-201.23
232.979	-350.23
233.112	69.77
233.245	-119.23
233.379	-303.23
233.512	0.77
233.645	-261.23
233.779	-257.23
233.912	39.77
234.045	-149.23
234.179	-6.23
234.312	-163.23
234.445	1.77
234.578	-19.23
234.712	-31.23
234.845	48.77
234.978	-183.23
235.112	-57.23
235.245	133.77
235.378	-171.23
235.511	-26.23
235.645	29.77
235.778	27.77
235.911	-178.23
236.044	-276.23
236.178	278.77
236.311	-250.23
236.444	-255.23
236.577	-237.23
236.711	-91.23
236.844	-406.23
236.977	-141.23
237.11	-201.23
237.243	-3.23
237.377	-279.23
237.51	-246.23
237.643	945.77
237.776	-159.23
237.909	-133.23
238.043	-2.23
238.176	-226.23
238.309	-77.23
238.442	-320.23
238.575	-82.23
238.709	377.77
238.842	-10.23
238.975	-53.23
239.108	170.77
239.241	-281.23
239.374	-227.23
239.508	-217.23
239.641	191.77
239.774	338.77
239.907	-29.23
240.04	-286.23
240.173	28.77
240.306	210.77
240.44	-173.23
240.573	153.77
240.706	-157.23
240.839	13.77
240.972	-64.23
241.105	-42.23
241.238	44.77
241.371	-46.23
241.504	-49.23
241.638	-139.23
241.771	-62.23
241.904	-171.23
242.037	23.77
242.17	-171.23
242.303	-312.23
242.436	-95.23
242.569	-114.23
242.702	-234.23
242.835	-155.23
242.968	-38.23
243.101	-122.23
243.234	-232.23
243.367	-281.23
243.5	-121.23
243.634	-172.23
243.767	-319.23
243.9	-229.23
244.033	-248.23
244.166	55.77
244.299	-347.23
244.432	-239.23
244.565	5.77
244.698	-357.23
244.831	-172.23
244.964	-264.23
245.097	-183.23
245.23	6.77
245.363	162.77
245.496	-288.23
245.629	-149.23
245.762	432.77
245.895	-230.23
246.028	-174.23
246.161	374.77
246.294	44.77
246.427	-217.23
246.559	92.77
246.692	-53.23
246.825	-133.23
246.958	-269.23
247.091	-279.23
247.224	-324.23
247.357	-199.23
247.49	137.77
247.623	-188.23
247.756	-241.23
247.889	292.77
248.022	-105.23
248.155	-292.23
248.288	-116.23
248.421	-231.23
248.553	44.77
248.686	-226.23
248.819	110.77
248.952	-250.23
249.085	177.77
249.218	-23.23
249.351	-87.23
249.484	162.77
249.617	-86.23
249.749	-248.23
249.882	-236.23
250.015	-243.23
250.148	-137.23
250.281	-252.23
250.414	-171.23
250.547	-154.23
250.679	157.77
250.812	-96.23
250.945	1.77
251.078	-231.23
251.211	-149.23
251.344	-269.23
251.476	-183.23
251.609	17.77
251.742	-279.23
251.875	-59.23
252.008	-231.23
252.14	-360.23
252.273	-98.23
252.406	168.77
252.539	-29.23
252.672	-83.23
252.804	140.77
252.937	-247.23
253.07	-13.23
253.203	-120.23
253.335	85.77
253.468	-369.23
253.601	-176.23
253.734	-86.23
253.866	-136.23
253.999	386.77
254.132	-10.23
254.265	-166.23
254.397	-181.23
254.53	-141.23
254.663	25.77
254.796	-222.23
254.928	-286.23
255.061	-216.23
255.194	-68.23
255.327	-315.23
255.459	-48.23
255.592	-273.23
255.725	186.77
255.857	-228.23
255.99	-44.23
256.123	-277.23
256.255	-258.23
256.388	-76.23
256.521	-252.23
256.653	-323.23
256.786	-221.23
256.919	-169.23
257.051	-238.23
257.184	10.77
257.317	-235.23
257.449	-246.23
257.582	-119.23
257.715	-201.23
257.847	-218.23
257.98	-89.23
258.113	-208.23
258.245	-138.23
258.378	-365.23
258.51	-288.23
258.643	-281.23
258.776	33.77
258.908	-277.23
259.041	-72.23
259.174	-198.23
259.306	-209.23
259.439	-286.23
259.571	-194.23
259.704	-98.23
259.837	143.77
259.969	-256.23
260.102	-242.23
260.234	228.77
260.367	60.77
260.499	-224.23
260.632	-173.23
260.765	-223.23
260.897	-206.23
261.03	-234.23
261.162	-58.23
261.295	-75.23
261.427	85.77
261.56	-73.23
261.692	-268.23
261.825	-67.23
261.957	92.77
262.09	74.77
262.222	30.77
262.355	-233.23
262.487	-106.23
262.62	-274.23
262.752	-105.23
262.885	-150.23
263.017	34.77
263.15	-218.23
263.282	-49.23
263.415	-259.23
263.547	-53.23
263.68	188.77
263.812	-332.23
263.945	-116.23
264.077	-270.23
264.21	150.77
264.342	-297.23
264.475	-242.23
264.607	150.77
264.74	-387.23
264.872	-88.23
265.004	137.77
265.137	70.77
265.269	325.77
265.402	-255.23
265.534	-156.23
265.667	-193.23
265.799	97.77
265.931	-113.23
266.064	30.77
266.196	-140.23
266.329	-206.23
266.461	-197.23
266.593	28.77
266.726	-315.23
266.858	-161.23
266.99	-116.23
267.123	-154.23
267.255	-67.23
267.388	-132.23
267.52	-232.23
267.652	-190.23
267.785	132.77
267.917	-29.23
268.049	-157.23
268.182	361.77
268.314	56.77
268.446	-334.23
268.579	-226.23
268.711	217.77
268.843	-219.23
268.976	-80.23
269.108	365.77
269.24	170.77
269.373	-30.23
269.505	-163.23
269.637	-149.23
269.77	-201.23
269.902	155.77
270.034	-278.23
270.167	21.77
270.299	-42.23
270.431	-8.23
270.563	-199.23
270.696	15.77
270.828	-118.23
270.96	-101.23
271.092	-20.23
271.225	-243.23
271.357	-58.23
271.489	-202.23
271.621	-269.23
271.754	510.77
271.886	-204.23
272.018	-163.23
272.15	269.77
272.283	-310.23
272.415	-155.23
272.547	72.77
272.679	43.77
272.811	-111.23
272.944	-133.23
273.076	-342.23
273.208	-29.23
273.34	-83.23
273.473	-145.23
273.605	86.77
273.737	-272.23
273.869	-43.23
274.001	-419.23
274.133	21.77
274.266	-211.23
274.398	1442.77
274.53	44.77
274.662	128.77
274.794	1.77
274.926	82.77
275.059	-183.23
275.191	-5.23
275.323	-262.23
275.455	88.77
275.587	-227.23
275.719	-142.23
275.851	-100.23
275.983	10.77
276.116	3.77
276.248	156.77
276.38	-259.23
276.512	-16.23
276.644	-166.23
276.776	-242.23
276.908	-47.23
277.04	-127.23
277.172	57.77
277.304	-208.23
277.437	-7.23
277.569	-238.23
277.701	-232.23
277.833	-100.23
277.965	-187.23
278.097	50.77
278.229	-180.23
278.361	-183.23
278.493	107.77
278.625	196.77
278.757	21.77
278.889	-251.23
279.021	-166.23
279.153	480.77
279.285	-268.23
279.417	556.77
279.549	71.77
279.681	-107.23
279.813	-189.23
279.945	22.77
280.077	-196.23
280.209	1095.77
280.341	-284.23
280.473	-157.23
280.605	56.77
280.737	-2.23
280.869	209.77
281.001	-68.23
281.133	-331.23
281.265	-40.23
281.397	-158.23
281.529	272.77
281.661	-283.23
281.793	-331.23
281.925	-207.23
282.057	-121.23
282.189	-179.23
282.321	-51.23
282.453	7.77
282.585	-234.23
282.717	151.77
282.849	-70.23
282.98	-166.23
283.112	-240.23
283.244	13.77
283.376	-265.23
283.508	-357.23
283.64	-259.23
283.772	74.77
283.904	87.77
284.036	-266.23
284.168	121.77
284.299	-44.23
284.431	-22.23
284.563	-116.23
284.695	-168.23
284.827	-246.23
284.959	-35.23
285.091	-234.23
285.222	-261.23
285.354	-191.23
285.486	-142.23
285.618	-262.23
285.75	-134.23
285.882	171.77
286.013	43.77
286.145	-66.23
286.277	12.77
286.409	64.77
286.541	35.77
286.673	-219.23
286.804	-242.23
286.936	-79.23
287.068	-213.23
287.2	-226.23
287.332	297.77
287.463	-326.23
287.595	-65.23
287.727	408.77
287.859	-108.23
287.99	-124.23
288.122	-234.23
288.254	31.77
288.386	-181.23
288.517	-257.23
288.649	-156.23
288.781	-16.23
288.913	-26.23
289.044	-301.23
289.176	166.77
289.308	-154.23
289.44	-341.23
289.571	-203.23
289.703	-243.23
289.835	56.77
289.967	-259.23
290.098	-293.23
290.23	-307.23
290.362	107.77
290.493	-319.23
290.625	-171.23
290.757	-185.23
290.888	-139.23
291.02	-37.23
291.152	-53.23
291.283	-16.23
291.415	-148.23
291.547	-257.23
291.678	-243.23
291.81	-29.23
291.942	248.77
292.073	-34.23
292.205	-254.23
292.337	63.77
292.468	493.77
292.6	-194.23
292.732	614.77
292.863	-239.23
292.995	-333.23
293.126	24.77
293.258	181.77
293.39	-269.23
293.521	-243.23
293.653	-320.23
293.785	97.77
293.916	-136.23
294.048	33.77
294.179	0.77
294.311	-254.23
294.442	41.77
294.574	-286.23
294.706	-107.23
294.837	82.77
294.969	-86.23
295.1	-180.23
295.232	-249.23
295.363	153.77
295.495	-194.23
295.627	-31.23
295.758	103.77
295.89	-341.23
296.021	3.77
296.153	55.77
296.284	-67.23
296.416	-124.23
296.547	-152.23
296.679	-70.23
296.81	-73.23
296.942	-355.23
297.073	-247.23
297.205	-272.23
297.336	-173.23
297.468	-238.23
297.599	-69.23
297.731	-330.23
297.862	-119.23
297.994	-324.23
298.125	-273.23
298.257	-139.23
298.388	11.77
298.52	34.77
298.651	-119.23
298.782	270.77
298.914	-240.23
299.045	-171.23
299.177	-310.23
299.308	-307.23
299.44	23.77
299.571	-64.23
299.702	-172.23
299.834	-84.23
299.965	-168.23
300.097	-235.23
300.228	-13.23
300.36	-67.23
300.491	-88.23
300.622	-1.23
300.754	-127.23
300.885	-224.23
301.017	-60.23
301.148	-182.23
301.279	-332.23
301.411	6.77
301.542	-37.23
301.673	-59.23
301.805	14.77
301.936	-225.23
302.067	-141.23
302.199	-167.23
302.33	-273.23
302.461	313.77
302.593	-18.23
302.724	-35.23
302.855	-324.23
302.987	-131.23
303.118	-267.23
303.249	-356.23
303.381	-159.23
303.512	-200.23
303.643	-225.23
303.775	133.77
303.906	-251.23
304.037	-236.23
304.169	-237.23
304.3	-168.23
304.431	-278.23
304.562	-240.23
304.694	-149.23
304.825	-34.23
304.956	99.77
305.087	-204.23
305.219	16.77
305.35	-47.23
305.481	-223.23
305.612	21.77
305.744	19.77
305.875	-153.23
306.006	519.77
306.137	-227.23
306.269	-58.23
306.4	61.77
306.531	104.77
306.662	-163.23
306.794	83.77
306.925	-213.23
307.056	-254.23
307.187	-52.23
307.318	-145.23
307.45	-135.23
307.581	-191.23
307.712	-259.23
307.843	-90.23
307.974	-72.23
308.105	108.77
308.237	-77.23
308.368	-289.23
308.499	-155.23
308.63	-6.23
308.761	-140.23
308.892	-87.23
309.024	-145.23
309.155	-218.23
309.286	-165.23
309.417	-302.23
309.548	-166.23
309.679	-157.23
309.81	-386.23
309.941	463.77
310.073	-37.23
310.204	-339.23
310.335	-2.23
310.466	-204.23
310.597	-282.23
310.728	-167.23
310.859	323.77
310.99	320.77
311.121	-100.23
311.252	-123.23
311.383	-271.23
311.514	-38.23
311.646	-186.23
311.777	-24.23
311.908	-70.23
312.039	-123.23
312.17	-329.23
312.301	-121.23
312.432	-228.23
312.563	-326.23
312.694	-46.23
312.825	-149.23
312.956	-216.23
313.087	0.77
313.218	88.77
313.349	-157.23
313.48	-333.23
313.611	-131.23
313.742	-117.23
313.873	69.77
314.004	-42.23
314.135	-178.23
314.266	-57.23
314.397	-164.23
314.528	-291.23
314.659	-257.23
314.79	-243.23
314.921	36.77
315.052	24.77
315.183	-240.23
315.314	-309.23
315.445	54.77
315.576	-27.23
315.707	-148.23
315.838	-191.23
315.968	-23.23
316.099	-297.23
316.23	-314.23
316.361	86.77
316.492	-131.23
316.623	53.77
316.754	154.77
316.885	-379.23
317.016	-319.23
317.147	-362.23
317.278	68.77
317.408	-246.23
317.539	-293.23
317.67	-278.23
317.801	-18.23
317.932	-181.23
318.063	-210.23
318.194	-156.23
318.325	-32.23
318.455	-384.23
318.586	-155.23
318.717	-33.23
318.848	-350.23
318.979	43.77
319.11	253.77
319.24	-6.23
319.371	64.77
319.502	-89.23
319.633	-226.23
319.764	-115.23
319.895	-270.23
320.025	-67.23
320.156	-302.23
320.287	-452.23
320.418	-255.23
320.549	-68.23
320.679	-311.23
320.81	135.77
320.941	-342.23
321.072	-304.23
321.202	-56.23
321.333	242.77
321.464	-410.23
321.595	-239.23
321.726	228.77
321.856	-341.23
321.987	-172.23
322.118	-261.23
322.249	-21.23
322.379	-67.23
322.51	24.77
322.641	-84.23
322.771	-317.23
322.902	-109.23
323.033	-115.23
323.164	656.77
323.294	-183.23
323.425	-192.23
323.556	-200.23
323.686	-112.23
323.817	281.77
323.948	-20.23
324.078	-167.23
324.209	119.77
324.34	-193.23
324.47	166.77
324.601	-238.23
324.732	-85.23
324.862	24.77
324.993	-222.23
325.124	-404.23
325.254	-75.23
325.385	-92.23
325.516	504.77
325.646	383.77
325.777	-174.23
325.908	-159.23
326.038	19.77
326.169	-143.23
326.299	-97.23
326.43	133.77
326.561	-145.23
326.691	-151.23
326.822	-279.23
326.952	-201.23
327.083	-99.23
327.214	-275.23
327.344	-93.23
327.475	-22.23
327.605	-45.23
327.736	-163.23
327.867	-291.23
327.997	-146.23
328.128	-61.23
328.258	-340.23
328.389	232.77
328.519	-273.23
328.65	66.77
328.78	-239.23
328.911	-18.23
329.041	119.77
329.172	-330.23
329.303	-214.23
329.433	-185.23
329.564	-262.23
329.694	-239.23
329.825	-232.23
329.955	-70.23
330.086	432.77
330.216	-175.23
330.347	-293.23
330.477	-138.23
330.608	-104.23
330.738	-122.23
330.868	-320.23
330.999	-164.23
331.129	129.77
331.26	-224.23
331.39	-207.23
331.521	167.77
331.651	29.77
331.782	-349.23
331.912	-266.23
332.043	-287.23
332.173	45.77
332.303	-318.23
332.434	132.77
332.564	-45.23
332.695	-211.23
332.825	-351.23
332.956	-199.23
333.086	-128.23
333.216	-246.23
333.347	-67.23
333.477	-402.23
333.608	-73.23
333.738	2.77
333.868	-137.23
333.999	-65.23
334.129	102.77
334.259	-70.23
334.39	-248.23
334.52	40.77
334.65	-187.23
334.781	128.77
334.911	-210.23
335.042	-269.23
335.172	-37.23
335.302	-140.23
335.433	251.77
335.563	-263.23
335.693	3.77
335.824	226.77
335.954	-368.23
336.084	-31.23
336.214	-35.23
336.345	312.77
336.475	46.77
336.605	-252.23
336.736	286.77
336.866	-119.23
336.996	-183.23
337.126	-269.23
337.257	-86.23
337.387	-342.23
337.517	-216.23
337.648	-349.23
337.778	135.77
337.908	62.77
338.038	14.77
338.169	-149.23
338.299	227.77
338.429	-31.23
338.559	-232.23
338.69	-210.23
338.82	379.77
338.95	-20.23
339.08	-438.23
339.21	-314.23
339.341	-105.23
339.471	34.77
339.601	-112.23
339.731	-59.23
339.861	-182.23
339.992	-171.23
340.122	-142.23
340.252	-222.23
340.382	-221.23
340.512	-81.23
340.642	141.77
340.773	-67.23
340.903	-289.23
341.033	-96.23
341.163	-51.23
341.293	97.77
341.423	-215.23
341.554	-277.23
341.684	-11.23
341.814	-148.23
341.944	-160.23
342.074	-102.23
342.204	-167.23
342.334	178.77
342.464	-274.23
342.595	-176.23
342.725	-323.23
342.855	-75.23
342.985	-163.23
343.115	-261.23
343.245	-371.23
343.375	-4.23
343.505	-102.23
343.635	-14.23
343.765	-206.23
343.895	-372.23
344.025	37.77
344.155	-296.23
344.286	-187.23
344.416	-69.23
344.546	130.77
344.676	-101.23
344.806	149.77
344.936	-51.23
345.066	177.77
345.196	-261.23
345.326	-320.23
345.456	83.77
345.586	-241.23
345.716	-279.23
345.846	20.77
345.976	-355.23
346.106	-150.23
346.236	61.77
346.366	9.77
346.496	-204.23
346.626	-191.23
346.756	-198.23
346.886	-264.23
347.016	-354.23
347.146	-222.23
347.276	-245.23
347.406	-199.23
347.536	-48.23
347.666	112.77
347.795	-242.23
347.925	-165.23
348.055	114.77
348.185	-154.23
348.315	-192.23
348.445	90.77
348.575	-183.23
348.705	-259.23
348.835	-251.23
348.965	-153.23
349.095	-11.23
349.225	262.77
349.354	-284.23
349.484	-156.23
349.614	-157.23
349.744	-254.23
349.874	-247.23
350.004	-337.23
350.134	-262.23
350.264	-361.23
350.393	-293.23
350.523	118.77
350.653	-319.23
350.783	25.77
350.913	148.77
351.043	-239.23
351.173	-205.23
351.302	-29.23
351.432	166.77
351.562	-93.23
351.692	-94.23
351.822	-191.23
351.951	-363.23
352.081	177.77
352.211	-117.23
352.341	199.77
352.471	125.77
352.6	-150.23
352.73	-153.23
352.86	-149.23
352.99	-32.23
353.12	-76.23
353.249	0.77
353.379	-244.23
353.509	73.77
353.639	-275.23
353.768	-95.23
353.898	-219.23
354.028	-312.23
354.158	-194.23
354.287	-238.23
354.417	-299.23
354.547	-262.23
354.677	-357.23
354.806	-133.23
354.936	-5.23
355.066	-182.23
355.195	-54.23
355.325	-26.23
355.455	-246.23
355.584	150.77
355.714	-246.23
355.844	141.77
355.974	-47.23
356.103	-104.23
356.233	-188.23
356.363	46.77
356.492	-279.23
356.622	-324.23
356.752	-7.23
356.881	-362.23
357.011	32.77
357.14	122.77
357.27	-148.23
357.4	34.77
357.529	-140.23
357.659	148.77
357.789	22.77
357.918	-305.23
358.048	-352.23
358.177	-128.23
358.307	-255.23
358.437	-85.23
358.566	-236.23
358.696	24.77
358.825	135.77
358.955	-315.23
359.085	-12.23
359.214	-398.23
359.344	-110.23
359.473	-267.23
359.603	-133.23
359.733	-184.23
359.862	-293.23
359.992	46.77
360.121	-178.23
360.251	38.77
360.38	-310.23
360.51	81.77
360.639	-158.23
360.769	-49.23
360.898	95.77
361.028	65.77
361.157	-27.23
361.287	-73.23
361.416	-272.23
361.546	-142.23
361.675	-148.23
361.805	-168.23
361.934	23.77
362.064	-169.23
362.193	-175.23
362.323	-280.23
362.452	113.77
362.582	-252.23
362.711	-162.23
362.841	2.77
362.97	-7.23
363.1	-263.23
363.229	-301.23
363.359	-147.23
363.488	-243.23
363.617	-122.23
363.747	-101.23
363.876	-376.23
364.006	-43.23
364.135	-120.23
364.265	-155.23
364.394	-181.23
364.523	254.77
364.653	-223.23
364.782	-6.23
364.912	-260.23
365.041	-267.23
365.17	-262.23
365.3	-85.23
365.429	172.77
365.558	-164.23
365.688	-221.23
365.817	-260.23
365.947	-64.23
366.076	-84.23
366.205	-70.23
366.335	-355.23
366.464	-233.23
366.593	101.77
366.723	-148.23
366.852	-143.23
366.981	-104.23
367.111	-267.23
367.24	-175.23
367.369	-163.23
367.499	501.77
367.628	120.77
367.757	-147.23
367.886	-61.23
368.016	109.77
368.145	-125.23
368.274	-76.23
368.404	-322.23
368.533	-95.23
368.662	-4.23
368.791	-197.23
368.921	-371.23
369.05	131.77
369.179	-63.23
369.308	333.77
369.438	-306.23
369.567	-365.23
369.696	-129.23
369.825	-9.23
369.955	-159.23
370.084	-30.23
370.213	-126.23
370.342	-301.23
370.472	-286.23
370.601	430.77
370.73	23.77
370.859	-438.23
370.988	-174.23
371.118	-304.23
371.247	7.77
371.376	61.77
371.505	-68.23
371.634	-38.23
371.763	-97.23
371.893	-278.23
372.022	-154.23
372.151	-273.23
372.28	-318.23
372.409	-391.23
372.538	-163.23
372.667	-63.23
372.797	103.77
372.926	-364.23
373.055	-60.23
373.184	-121.23
373.313	-268.23
373.442	-38.23
373.571	-223.23
373.7	-156.23
373.83	-57.23
373.959	-411.23
374.088	-163.23
374.217	95.77
374.346	-168.23
374.475	-363.23
374.604	-243.23
374.733	277.77
374.862	-157.23
374.991	-275.23
375.12	-63.23
375.249	-28.23
375.378	-232.23
375.508	-324.23
375.637	-327.23
375.766	69.77
375.895	-182.23
376.024	108.77
376.153	-248.23
376.282	-135.23
376.411	-234.23
376.54	-460.23
376.669	-52.23
376.798	-179.23
376.927	-301.23
377.056	80.77
377.185	-74.23
377.314	92.77
377.443	259.77
377.572	-296.23
377.701	-289.23
377.83	118.77
377.959	-21.23
378.088	1629.77
378.217	148.77
378.346	-207.23
378.474	-372.23
378.603	-288.23
378.732	-65.23
378.861	-190.23
378.99	-297.23
379.119	-373.23
379.248	-82.23
379.377	-168.23
379.506	-181.23
379.635	115.77
379.764	-101.23
379.893	-274.23
380.022	-334.23
380.15	-95.23
380.279	-361.23
380.408	-255.23
380.537	-164.23
380.666	11.77
380.795	-40.23
380.924	-169.23
381.053	-270.23
381.181	-65.23
381.31	770.77
381.439	-272.23
381.568	-194.23
381.697	-200.23
381.826	-153.23
381.955	-278.23
382.083	-126.23
382.212	-329.23
382.341	34.77
382.47	-203.23
382.599	-169.23
382.727	245.77
382.856	-42.23
382.985	-29.23
383.114	-167.23
383.243	-222.23
383.371	-142.23
383.5	-252.23
383.629	-263.23
383.758	-254.23
383.887	-410.23
384.015	-102.23
384.144	-279.23
384.273	-126.23
384.402	-21.23
384.53	-282.23
384.659	-274.23
384.788	-268.23
384.917	-244.23
385.045	-105.23
385.174	-134.23
385.303	-415.23
385.432	39.77
385.56	-111.23
385.689	-180.23
385.818	-70.23
385.946	-36.23
386.075	-263.23
386.204	-301.23
386.332	-157.23
386.461	29.77
386.59	-11.23
386.718	-320.23
386.847	-160.23
386.976	-171.23
387.104	-390.23
387.233	-287.23
387.362	-72.23
387.49	-65.23
387.619	-271.23
387.748	-156.23
387.876	136.77
388.005	-113.23
388.134	80.77
388.262	-339.23
388.391	-248.23
388.52	-39.23
388.648	-283.23
388.777	52.77
388.905	-257.23
389.034	-176.23
389.163	-286.23
389.291	-134.23
389.42	20.77
389.548	48.77
389.677	-131.23
389.805	-82.23
389.934	-33.23
390.063	-269.23
390.191	-349.23
390.32	-253.23
390.448	-157.23
390.577	-279.23
390.705	-326.23
390.834	-155.23
390.962	-334.23
391.091	-307.23
391.22	89.77
391.348	133.77
391.477	-29.23
391.605	-358.23
391.734	-154.23
391.862	-214.23
391.991	-299.23
392.119	-277.23
392.248	-151.23
392.376	-123.23
392.505	-185.23
392.633	-214.23
392.762	292.77
392.89	-292.23
393.018	11.77
393.147	-204.23
393.275	-379.23
393.404	-287.23
393.532	-187.23
393.661	-127.23
393.789	-82.23
393.918	-90.23
394.046	-157.23
394.174	-145.23
394.303	-319.23
394.431	-216.23
394.56	21.77
394.688	-345.23
394.817	-385.23
394.945	89.77
395.073	56.77
395.202	-93.23
395.33	-176.23
395.459	-139.23
395.587	106.77
395.715	66.77
395.844	-103.23
395.972	-399.23
396.1	126.77
396.229	-285.23
396.357	-67.23
396.485	-212.23
396.614	-252.23
396.742	98.77
396.87	-120.23
396.999	-29.23
397.127	-312.23
397.255	-51.23
397.384	117.77
397.512	-351.23
397.64	-276.23
397.769	-151.23
397.897	-44.23
398.025	-155.23
398.154	-95.23
398.282	213.77
398.41	-86.23
398.538	-99.23
398.667	-212.23
398.795	-230.23
398.923	29.77
399.052	-202.23
399.18	-190.23
399.308	-147.23
399.436	171.77
399.565	-315.23
399.693	-84.23
399.821	-140.23
399.949	-212.23
400.078	273.77
400.206	-335.23
400.334	-311.23
400.462	-146.23
400.59	-359.23
400.719	-233.23
400.847	-273.23
400.975	-53.23
401.103	-266.23
401.231	-103.23
401.36	-137.23
401.488	-15.23
401.616	-196.23
401.744	-187.23
401.872	-242.23
402	-18.23
402.129	-218.23
402.257	-268.23
402.385	-171.23
402.513	-135.23
402.641	-217.23
402.769	-138.23
402.897	-275.23
403.026	-328.23
403.154	-366.23
403.282	-322.23
403.41	-162.23
403.538	192.77
403.666	-328.23
403.794	-169.23
403.922	-103.23
404.05	-82.23
404.179	-151.23
404.307	-64.23
404.435	-292.23
404.563	-306.23
404.691	-375.23
404.819	448.77
404.947	-298.23
405.075	-247.23
405.203	-343.23
405.331	-248.23
405.459	-281.23
405.587	-101.23
405.715	-259.23
405.843	-224.23
405.971	-96.23
406.099	125.77
406.227	-24.23
406.355	-185.23
406.483	-360.23
406.611	-27.23
406.739	-303.23
406.867	-329.23
406.995	-230.23
407.123	-191.23
407.251	-376.23
407.379	-324.23
407.507	-53.23
407.635	-180.23
407.763	-440.23
407.891	-424.23
408.019	-1.23
408.147	12.77
408.275	172.77
408.403	-329.23
408.531	-359.23
408.659	169.77
408.787	-128.23
408.915	-219.23
409.043	-256.23
409.171	66.77
409.299	-24.23
409.427	84.77
409.554	-344.23
409.682	273.77
409.81	-91.23
409.938	-211.23
410.066	27.77
410.194	-68.23
410.322	-295.23
410.45	-198.23
410.578	-362.23
410.705	-293.23
410.833	-96.23
410.961	65.77
411.089	346.77
411.217	-155.23
411.345	-188.23
411.473	-262.23
411.6	-75.23
411.728	-222.23
411.856	-354.23
411.984	-315.23
412.112	-72.23
412.239	-60.23
412.367	-218.23
412.495	76.77
412.623	-265.23
412.751	24.77
412.878	-381.23
413.006	-212.23
413.134	70.77
413.262	157.77
413.39	-51.23
413.517	-107.23
413.645	44.77
413.773	-349.23
413.901	176.77
414.028	-201.23
414.156	-132.23
414.284	-252.23
414.412	43.77
414.539	-206.23
414.667	-222.23
414.795	-214.23
414.923	-391.23
415.05	-191.23
415.178	-55.23
415.306	290.77
415.433	-284.23
415.561	62.77
415.689	24.77
415.816	-248.23
415.944	166.77
416.072	-301.23
416.2	5.77
416.327	218.77
416.455	-269.23
416.583	-249.23
416.71	-247.23
416.838	170.77
416.966	-327.23
417.093	-197.23
417.221	69.77
417.348	-77.23
417.476	-343.23
417.604	-205.23
417.731	-159.23
417.859	49.77
417.987	-72.23
418.114	-261.23
418.242	23.77
418.369	-228.23
418.497	-334.23
418.625	164.77
418.752	-140.23
418.88	-311.23
419.007	173.77
419.135	-57.23
419.263	-212.23
419.39	32.77
419.518	86.77
419.645	23.77
419.773	617.77
419.9	1709.77
420.028	4131.77
420.155	4932.77
420.283	7109.77
420.41	7938.77
420.538	8768.77
420.666	9357.77
420.793	9649.77
420.921	8716.77
421.048	7015.77
421.176	4718.77
421.303	2398.77
421.431	675.77
421.558	-95.23
421.686	249.77
421.813	37.77
421.941	-162.23
422.068	-54.23
422.195	91.77
422.323	32.77
422.45	-358.23
422.578	-99.23
422.705	-214.23
422.833	-171.23
422.96	-266.23
423.088	-26.23
423.215	376.77
423.343	289.77
423.47	-75.23
423.597	221.77
423.725	-116.23
423.852	-137.23
423.98	-82.23
424.107	-359.23
424.234	-149.23
424.362	-194.23
424.489	-242.23
424.617	493.77
424.744	27.77
424.871	-311.23
424.999	-145.23
425.126	125.77
425.253	-35.23
425.381	-208.23
425.508	-320.23
425.636	14.77
425.763	-215.23
425.89	-213.23
426.018	-351.23
426.145	-117.23
426.272	-98.23
426.4	19.77
426.527	71.77
426.654	-293.23
426.781	-78.23
426.909	-105.23
427.036	-109.23
427.163	-394.23
427.291	-302.23
427.418	-179.23
427.545	-130.23
427.673	-348.23
427.8	-382.23
427.927	-323.23
428.054	-67.23
428.182	-178.23
428.309	-189.23
428.436	-244.23
428.563	-316.23
428.691	-97.23
428.818	-222.23
428.945	1.77
429.072	-325.23
429.2	-89.23
429.327	-91.23
429.454	16.77
429.581	-152.23
429.708	-405.23
429.836	-272.23
429.963	-236.23
430.09	-240.23
430.217	-220.23
430.344	-285.23
430.472	-326.23
430.599	-59.23
430.726	-217.23
430.853	-144.23
430.98	-41.23
431.107	-278.23
431.235	-118.23
431.362	-44.23
431.489	-151.23
431.616	216.77
431.743	95.77
431.87	-340.23
431.997	-210.23
432.125	-120.23
432.252	-454.23
432.379	-201.23
432.506	-76.23
432.633	-261.23
432.76	-106.23
432.887	102.77
433.014	-212.23
433.141	-280.23
433.268	-73.23
433.395	-253.23
433.523	-185.23
433.65	-213.23
433.777	-206.23
433.904	-211.23
434.031	-348.23
434.158	-106.23
434.285	20.77
434.412	-367.23
434.539	-149.23
434.666	-288.23
434.793	-291.23
434.92	-310.23
435.047	-4.23
435.174	-194.23
435.301	-11.23
435.428	248.77
435.555	145.77
435.682	-102.23
435.809	-303.23
435.936	113.77
436.063	-274.23
436.19	117.77
436.317	-273.23
436.444	25.77
436.571	-278.23
436.698	-21.23
436.825	104.77
436.952	-17.23
437.079	-61.23
437.206	-10.23
437.333	-289.23
437.46	-204.23
437.587	-149.23
437.714	-339.23
437.84	-167.23
437.967	-359.23
438.094	-380.23
438.221	65.77
438.348	-183.23
438.475	8038.77
438.602	-329.23
438.729	-422.23
438.856	-262.23
438.983	-302.23
439.109	-44.23
439.236	44.77
439.363	-418.23
439.49	-211.23
439.617	-137.23
439.744	-262.23
439.871	427.77
439.997	-272.23
440.124	-85.23
440.251	-86.23
440.378	-256.23
440.505	-205.23
440.632	54.77
440.758	131.77
440.885	261.77
441.012	-292.23
441.139	18.77
441.266	-324.23
441.392	-218.23
441.519	-295.23
441.646	-353.23
441.773	-56.23
441.9	204.77
442.026	-237.23
442.153	-87.23
442.28	-59.23
442.407	-285.23
442.533	26.77
442.66	-86.23
442.787	-104.23
442.914	-275.23
443.04	-206.23
443.167	-124.23
443.294	-98.23
443.421	-115.23
443.547	-331.23
443.674	-153.23
443.801	-85.23
443.927	57.77
444.054	408.77
444.181	99.77
444.307	72.77
444.434	-117.23
444.561	-312.23
444.688	-359.23
444.814	16.77
444.941	-212.23
445.068	-328.23
445.194	221.77
445.321	-280.23
445.447	181.77
445.574	-387.23
445.701	-353.23
445.827	-195.23
445.954	-408.23
446.081	5.77
446.207	-287.23
446.334	-163.23
446.461	-205.23
446.587	-431.23
446.714	-23.23
446.84	48.77
446.967	-273.23
447.094	-191.23
447.22	83.77
447.347	-174.23
447.473	-278.23
447.6	-100.23
447.726	-369.23
447.853	-89.23
447.98	-133.23
448.106	-101.23
448.233	-108.23
448.359	-260.23
448.486	-79.23
448.612	-239.23
448.739	-50.23
448.865	64.77
448.992	212.77
449.118	-233.23
449.245	-321.23
449.371	-314.23
449.498	-141.23
449.624	-34.23
449.751	-115.23
449.877	-278.23
450.004	-134.23
450.13	-130.23
450.257	-286.23
450.383	-150.23
450.51	-391.23
450.636	-258.23
450.763	-216.23
450.889	-244.23
451.016	-440.23
451.142	-31.23
451.269	-293.23
451.395	240.77
451.521	-177.23
451.648	-274.23
451.774	-98.23
451.901	-387.23
452.027	-177.23
452.154	76.77
452.28	-192.23
452.406	-259.23
452.533	-292.23
452.659	-347.23
452.785	-179.23
452.912	-321.23
453.038	-346.23
453.165	-33.23
453.291	107.77
453.417	107.77
453.544	-319.23
453.67	-212.23
453.796	84.77
453.923	-324.23
454.049	-228.23
454.175	-286.23
454.302	-264.23
454.428	-47.23
454.554	-124.23
454.681	-278.23
454.807	-305.23
454.933	260.77
455.06	-116.23
455.186	-200.23
455.312	95.77
455.439	45.77
455.565	-359.23
455.691	-313.23
455.817	-11.23
455.944	66.77
456.07	-183.23
456.196	-35.23
456.322	-386.23
456.449	-338.23
456.575	-133.23
456.701	-243.23
456.827	-268.23
456.954	-332.23
457.08	-283.23
457.206	-443.23
457.332	-187.23
457.459	-388.23
457.585	-282.23
457.711	-295.23
457.837	-39.23
457.963	-73.23
458.09	-287.23
458.216	-341.23
458.342	-156.23
458.468	-182.23
458.594	-186.23
458.721	-114.23
458.847	-98.23
458.973	-362.23
459.099	-210.23
459.225	-228.23
459.351	-192.23
459.477	-47.23
459.604	-328.23
459.73	-225.23
459.856	-319.23
459.982	-99.23
460.108	-420.23
460.234	-444.23
460.36	-186.23
460.486	-19.23
460.613	-309.23
460.739	38.77
460.865	-263.23
460.991	186.77
461.117	160.77
461.243	-289.23
461.369	-329.23
461.495	-255.23
461.621	-155.23
461.747	-66.23
461.873	-5.23
461.999	-306.23
462.125	-174.23
462.252	26.77
462.378	-129.23
462.504	-18.23
462.63	-119.23
462.756	-339.23
462.882	-209.23
463.008	-226.23
463.134	67.77
463.26	-373.23
463.386	-212.23
463.512	-102.23
463.638	-228.23
463.764	-332.23
463.89	-182.23
464.016	73.77
464.142	-77.23
464.268	-332.23
464.394	-196.23
464.52	-345.23
464.645	-99.23
464.771	34.77
464.897	-261.23
465.023	-267.23
465.149	-130.23
465.275	-377.23
465.401	-299.23
465.527	73.77
465.653	-105.23
465.779	60.77
465.905	-344.23
466.031	-109.23
466.157	-274.23
466.282	-222.23
466.408	-278.23
466.534	-141.23
466.66	-410.23
466.786	-174.23
466.912	-128.23
467.038	-151.23
467.164	-216.23
467.289	-237.23
467.415	-179.23
467.541	-160.23
467.667	-206.23
467.793	-228.23
467.919	-57.23
468.045	145.77
468.17	-270.23
468.296	-169.23
468.422	-225.23
468.548	35.77
468.674	-409.23
468.799	-284.23
468.925	-248.23
469.051	-312.23
469.177	-382.23
469.303	-389.23
469.428	-30.23
469.554	-304.23
469.68	-290.23
469.806	-85.23
469.931	-160.23
470.057	350.77
470.183	-472.23
470.309	-231.23
470.434	128.77
470.56	-193.23
470.686	-112.23
470.812	-178.23
470.937	-311.23
471.063	-258.23
471.189	-84.23
471.315	22.77
471.44	-140.23
471.566	-192.23
471.692	86.77
471.817	-292.23
471.943	-160.23
472.069	-57.23
472.194	-198.23
472.32	-265.23
472.446	-31.23
472.571	-298.23
472.697	-286.23
472.823	-130.23
472.948	-326.23
473.074	-119.23
473.2	-184.23
473.325	-331.23
473.451	-196.23
473.577	-219.23
473.702	-422.23
473.828	-191.23
473.953	-385.23
474.079	-114.23
474.205	-375.23
474.33	-348.23
474.456	-233.23
474.581	203.77
474.707	-144.23
474.833	-265.23
474.958	-70.23
475.084	26.77
475.209	-225.23
475.335	-295.23
475.46	-107.23
475.586	-220.23
475.712	-76.23
475.837	-205.23
475.963	-211.23
476.088	-386.23
476.214	-296.23
476.339	-279.23
476.465	-270.23
476.59	-359.23
476.716	92.77
476.841	-318.23
476.967	221.77
477.092	-216.23
477.218	-123.23
477.343	-290.23
477.469	211.77
477.594	-260.23
477.72	-348.23
477.845	-134.23
477.971	-229.23
478.096	-144.23
478.222	-245.23
478.347	3299.77
478.472	1.77
478.598	-271.23
478.723	-244.23
478.849	-2.23
478.974	-61.23
479.1	-337.23
479.225	-103.23
479.35	-262.23
479.476	-63.23
479.601	-292.23
479.727	33.77
479.852	-276.23
479.977	-139.23
480.103	-155.23
480.228	172.77
480.354	-218.23
480.479	71.77
480.604	-267.23
480.73	-278.23
480.855	-428.23
480.98	36.77
481.106	-369.23
481.231	-402.23
481.356	-292.23
481.482	-423.23
481.607	-335.23
481.732	-496.23
481.858	-222.23
481.983	-309.23
482.108	-260.23
482.234	-407.23
482.359	-257.23
482.484	105.77
482.61	-301.23
482.735	-169.23
482.86	-366.23
482.985	-228.23
483.111	-205.23
483.236	-96.23
483.361	-260.23
483.486	-322.23
483.612	49.77
483.737	-413.23
483.862	-186.23
483.987	-63.23
484.113	-400.23
484.238	-66.23
484.363	-350.23
484.488	-229.23
484.614	-33.23
484.739	-232.23
484.864	19.77
484.989	429.77
485.114	-94.23
485.24	-180.23
485.365	-217.23
485.49	-416.23
485.615	-52.23
485.74	-210.23
485.865	-87.23
485.991	-121.23
486.116	-73.23
486.241	-399.23
486.366	-348.23
486.491	-57.23
486.616	-281.23
486.742	-211.23
486.867	-180.23
486.992	-337.23
487.117	-301.23
487.242	-337.23
487.367	-455.23
487.492	-213.23
487.617	-50.23
487.742	-137.23
487.868	-300.23
487.993	-62.23
488.118	-93.23
488.243	-117.23
488.368	-267.23
488.493	-411.23
488.618	-233.23
488.743	-240.23
488.868	-289.23
488.993	-204.23
489.118	12.77
489.243	-183.23
489.368	-243.23
489.493	-13.23
489.618	-181.23
489.743	-314.23
489.868	-188.23
489.993	-268.23
490.118	-426.23
490.243	383.77
490.368	-234.23
490.493	-26.23
490.618	31.77
490.743	-422.23
490.868	-153.23
490.993	-142.23
491.118	-2.23
491.243	-328.23
491.368	-316.23
491.493	-35.23
491.618	-200.23
491.743	-237.23
491.868	-247.23
491.993	-236.23
492.118	-275.23
492.243	-142.23
492.368	-89.23
492.493	-282.23
492.618	106.77
492.743	-248.23
492.867	8.77
492.992	-140.23
493.117	1.77
493.242	-275.23
493.367	-155.23
493.492	36.77
493.617	-314.23
493.742	66.77
493.867	-231.23
493.991	-386.23
494.116	-167.23
494.241	-141.23
494.366	-226.23
494.491	-42.23
494.616	53.77
494.74	-299.23
494.865	-383.23
494.99	-259.23
495.115	-205.23
495.24	-139.23
495.365	-275.23
495.489	-244.23
495.614	-94.23
495.739	-204.23
495.864	-235.23
495.989	-423.23
496.113	-9.23
496.238	-135.23
496.363	-270.23
496.488	-349.23
496.612	-12.23
496.737	-282.23
496.862	-239.23
496.987	-270.23
497.111	-324.23
497.236	-328.23
497.361	-293.23
497.486	82.77
497.61	-2.23
497.735	-222.23
497.86	-68.23
497.984	-58.23
498.109	-378.23
498.234	-296.23
498.359	-252.23
498.483	-159.23
498.608	-159.23
498.733	-262.23
498.857	-348.23
498.982	-160.23
499.107	-391.23
499.231	-183.23
499.356	-256.23
499.481	73.77
499.605	-493.23
499.73	-361.23
499.855	8.77
499.979	-301.23
500.104	-197.23
500.228	157.77
500.353	-225.23
500.478	-344.23
500.602	-115.23
500.727	105.77
500.852	-74.23
500.976	-426.23
501.101	-235.23
501.225	133.77
501.35	-325.23
501.474	-328.23
501.599	-2.23
501.724	-205.23
501.848	-211.23
501.973	93.77
502.097	-353.23
502.222	-400.23
502.346	-35.23
502.471	-87.23
502.595	-281.23
502.72	-351.23
502.844	-323.23
502.969	-217.23
503.094	156.77
503.218	-366.23
503.343	-268.23
503.467	-296.23
503.592	-223.23
503.716	-253.23
503.841	-148.23
503.965	198.77
504.089	-225.23
504.214	-344.23
504.338	-230.23
504.463	15.77
504.587	-132.23
504.712	-169.23
504.836	-189.23
504.961	233.77
505.085	116.77
505.21	-296.23
505.334	-248.23
505.458	184.77
505.583	-341.23
505.707	-107.23
505.832	-245.23
505.956	-136.23
506.08	-297.23
506.205	-271.23
506.329	100.77
506.454	-369.23
506.578	-171.23
506.702	-314.23
506.827	113.77
506.951	-66.23
507.076	-182.23
507.2	-347.23
507.324	-57.23
507.449	75.77
507.573	-189.23
507.697	-256.23
507.822	-181.23
507.946	-182.23
508.07	-410.23
508.195	-218.23
508.319	-217.23
508.443	-133.23
508.567	-420.23
508.692	-338.23
508.816	-309.23
508.94	-191.23
509.065	-440.23
509.189	-90.23
509.313	-87.23
509.437	-11.23
509.562	-260.23
509.686	-177.23
509.81	-208.23
509.935	-87.23
510.059	71.77
510.183	-318.23
510.307	-380.23
510.431	-22.23
510.556	-195.23
510.68	-293.23
510.804	-412.23
510.928	-171.23
511.053	-367.23
511.177	-356.23
511.301	-166.23
511.425	-253.23
511.549	-161.23
511.674	-153.23
511.798	-171.23
511.922	-67.23
512.046	171.77
512.17	-232.23
512.294	-351.23
512.419	-101.23
512.543	-65.23
512.667	-183.23
512.791	-327.23
512.915	-115.23
513.039	-248.23
513.163	-83.23
513.288	105.77
513.412	-225.23
513.536	39.77
513.66	-267.23
513.784	-191.23
513.908	-118.23
514.032	-172.23
514.156	-16.23
514.28	-58.23
514.404	-211.23
514.528	-194.23
514.653	-45.23
514.777	-0.23
514.901	-89.23
515.025	83.77
515.149	-226.23
515.273	-110.23
515.397	-213.23
515.521	-189.23
515.645	-194.23
515.769	-320.23
515.893	-263.23
516.017	-252.23
516.141	-390.23
516.265	-248.23
516.389	-279.23
516.513	-174.23
516.637	-285.23
516.761	-461.23
516.885	-272.23
517.009	-236.23
517.133	-109.23
517.257	-239.23
517.381	-30.23
517.505	-17.23
517.629	74.77
517.753	-244.23
517.877	-351.23
518.001	-257.23
518.125	-231.23
518.248	-42.23
518.372	-170.23
518.496	-400.23
518.62	-94.23
518.744	-178.23
518.868	-130.23
518.992	-143.23
519.116	-318.23
519.24	398.77
519.364	27.77
519.488	-188.23
519.611	-419.23
519.735	-191.23
519.859	-210.23
519.983	1.77
520.107	-258.23
520.231	18.77
520.355	-146.23
520.478	-303.23
520.602	-350.23
520.726	75.77
520.85	-235.23
520.974	31.77
521.098	-262.23
521.221	-337.23
521.345	35.77
521.469	-267.23
521.593	-210.23
521.717	20.77
521.84	-178.23
521.964	-292.23
522.088	-238.23
522.212	-210.23
522.335	-406.23
522.459	-262.23
522.583	188.77
522.707	-350.23
522.83	-420.23
522.954	-291.23
523.078	-288.23
523.202	-25.23
523.325	-231.23
523.449	-148.23
523.573	-169.23
523.697	-292.23
523.82	-172.23
523.944	-221.23
524.068	-199.23
524.191	-231.23
524.315	-405.23
524.439	-174.23
524.562	-35.23
524.686	-263.23
524.81	-300.23
524.933	-276.23
525.057	-251.23
525.181	-99.23
525.304	-367.23
525.428	89.77
525.552	-373.23
525.675	-169.23
525.799	-301.23
525.923	-123.23
526.046	-50.23
526.17	-426.23
526.293	-356.23
526.417	-129.23
526.541	7.77
526.664	-261.23
526.788	-243.23
526.911	-82.23
527.035	-344.23
527.159	-254.23
527.282	-264.23
527.406	-300.23
527.529	-71.23
527.653	-354.23
527.776	-135.23
527.9	-277.23
528.024	-306.23
528.147	-242.23
528.271	27.77
528.394	-0.23
528.518	29.77
528.641	-396.23
528.765	-151.23
528.888	-160.23
529.012	-104.23
529.135	-251.23
529.259	95.77
529.382	-212.23
529.506	-335.23
529.629	-118.23
529.753	-392.23
529.876	63.77
530	34.77
530.123	-163.23
530.247	-338.23
530.37	-278.23
530.493	-178.23
530.617	-328.23
530.74	23.77
530.864	-71.23
530.987	-402.23
531.111	-102.23
531.234	-319.23
531.357	30.77
531.481	22.77
531.604	13.77
531.728	-398.23
531.851	-107.23
531.974	-105.23
532.098	-223.23
532.221	-290.23
532.345	-216.23
532.468	-378.23
532.591	149.77
532.715	-204.23
532.838	-243.23
532.961	-198.23
533.085	-288.23
533.208	-125.23
533.331	-404.23
533.455	-58.23
533.578	-209.23
533.701	-112.23
533.825	-1.23
533.948	-271.23
534.071	-243.23
534.195	-75.23
534.318	-309.23
534.441	-284.23
534.564	-80.23
534.688	-262.23
534.811	-9.23
534.934	-186.23
535.058	-104.23
535.181	44.77
535.304	-62.23
535.427	-286.23
535.551	-391.23
535.674	-211.23
535.797	-68.23
535.92	-38.23
536.043	-360.23
536.167	-361.23
536.29	-99.23
536.413	-186.23
536.536	-319.23
536.66	-261.23
536.783	-107.23
536.906	-176.23
537.029	-297.23
537.152	-261.23
537.275	-198.23
537.399	120.77
537.522	-458.23
537.645	-230.23
537.768	-227.23
537.891	-113.23
538.014	-199.23
538.138	-277.23
538.261	-241.23
538.384	-167.23
538.507	-360.23
538.63	-232.23
538.753	121.77
538.876	-106.23
538.999	-349.23
539.123	-92.23
539.246	182.77
539.369	201.77
539.492	-284.23
539.615	-369.23
539.738	168.77
539.861	-261.23
539.984	-193.23
540.107	-124.23
540.23	-253.23
540.353	-286.23
540.476	-477.23
540.599	-106.23
540.722	-363.23
540.846	-129.23
540.969	-426.23
541.092	-151.23
541.215	-374.23
541.338	-121.23
541.461	-332.23
541.584	-207.23
541.707	-172.23
541.83	-316.23
541.953	-148.23
542.076	-95.23
542.199	-168.23
542.322	32.77
542.445	103.77
542.567	-243.23
542.69	-118.23
542.813	-252.23
542.936	-77.23
543.059	-148.23
543.182	221.77
543.305	41.77
543.428	-117.23
543.551	-208.23
543.674	85.77
543.797	-66.23
543.92	-217.23
544.043	249.77
544.166	-305.23
544.288	-217.23
544.411	-76.23
544.534	-332.23
544.657	-128.23
544.78	-247.23
544.903	-74.23
545.026	-191.23
545.149	-313.23
545.271	-335.23
545.394	-270.23
545.517	-386.23
545.64	380.77
545.763	-223.23
545.886	-292.23
546.008	-131.23
546.131	-19.23
546.254	-192.23
546.377	-405.23
546.5	-63.23
546.623	-79.23
546.745	-328.23
546.868	-228.23
546.991	-1.23
547.114	-165.23
547.236	-204.23
547.359	-317.23
547.482	-113.23
547.605	-264.23
547.728	-223.23
547.85	-355.23
547.973	-301.23
548.096	-204.23
548.219	-76.23
548.341	-204.23
548.464	-366.23
548.587	-163.23
548.709	-204.23
548.832	-140.23
548.955	260.77
549.078	27.77
549.2	-290.23
549.323	-242.23
549.446	189.77
549.568	-154.23
549.691	-103.23
549.814	-46.23
549.936	-290.23
550.059	-208.23
550.182	-313.23
550.304	-417.23
550.427	-194.23
550.55	-276.23
550.672	-288.23
550.795	275.77
550.917	-278.23
551.04	-201.23
551.163	-113.23
551.285	52.77
551.408	7.77
551.531	330.77
551.653	-353.23
551.776	-103.23
551.898	-88.23
552.021	-129.23
552.143	-192.23
552.266	-193.23
552.389	-154.23
552.511	-348.23
552.634	-373.23
552.756	-306.23
552.879	217.77
553.001	41.77
553.124	-399.23
553.246	-302.23
553.369	42.77
553.492	-187.23
553.614	36.77
553.737	-468.23
553.859	-14.23
553.982	11.77
554.104	-130.23
554.227	-319.23
554.349	-195.23
554.472	-183.23
554.594	-458.23
554.716	44.77
554.839	-55.23
554.961	-99.23
555.084	-356.23
555.206	-144.23
555.329	-372.23
555.451	-338.23
555.574	-84.23
555.696	-332.23
555.819	-166.23
555.941	-188.23
556.063	-31.23
556.186	-190.23
556.308	-122.23
556.431	243.77
556.553	-46.23
556.675	-291.23
556.798	-217.23
556.92	-35.23
557.043	-273.23
557.165	-375.23
557.287	45.77
557.41	-209.23
557.532	-145.23
557.654	-259.23
557.777	3.77
557.899	-170.23
558.021	-216.23
558.144	59.77
558.266	92.77
558.388	258.77
558.511	-246.23
558.633	-182.23
558.755	-256.23
558.878	-281.23
559	-17.23
559.122	-415.23
559.244	-266.23
559.367	-196.23
559.489	8.77
559.611	110.77
559.734	-190.23
559.856	-111.23
559.978	-143.23
560.1	-198.23
560.223	-166.23
560.345	82.77
560.467	-366.23
560.589	-205.23
560.712	-213.23
560.834	211.77
560.956	-319.23
561.078	-220.23
561.2	-102.23
561.323	51.77
561.445	-398.23
561.567	-265.23
561.689	-307.23
561.811	-53.23
561.934	-217.23
562.056	-205.23
562.178	-82.23
562.3	-245.23
562.422	-100.23
562.544	-164.23
562.666	36.77
562.789	-113.23
562.911	-155.23
563.033	-25.23
563.155	-5.23
563.277	-257.23
563.399	-451.23
563.521	-262.23
563.643	-268.23
563.766	-183.23
563.888	37.77
564.01	-165.23
564.132	-310.23
564.254	-355.23
564.376	84.77
564.498	-176.23
564.62	110.77
564.742	-140.23
564.864	-400.23
564.986	-178.23
565.108	279.77
565.23	-262.23
565.352	-31.23
565.474	-134.23
565.597	145.77
565.719	131.77
565.841	-374.23
565.963	-121.23
566.085	-114.23
566.207	-226.23
566.329	8.77
566.451	26.77
566.573	-226.23
566.695	-223.23
566.817	187.77
566.938	-323.23
567.06	-181.23
567.182	-115.23
567.304	-170.23
567.426	-331.23
567.548	25.77
567.67	-108.23
567.792	-194.23
567.914	-266.23
568.036	-140.23
568.158	-123.23
568.28	-320.23
568.402	-28.23
568.524	-196.23
568.646	-318.23
568.767	-222.23
568.889	6.77
569.011	-164.23
569.133	-275.23
569.255	-408.23
569.377	-338.23
569.499	-115.23
569.621	-228.23
569.742	180.77
569.864	-11.23
569.986	288.77
570.108	-44.23
570.23	-341.23
570.352	77.77
570.473	-109.23
570.595	-188.23
570.717	-348.23
570.839	-159.23
570.961	-14.23
571.082	-190.23
571.204	-319.23
571.326	-287.23
571.448	16.77
571.57	41.77
571.691	-171.23
571.813	-136.23
571.935	67.77
572.057	-151.23
572.178	-308.23
572.3	76.77
572.422	122.77
572.544	216.77
572.665	-251.23
572.787	-308.23
572.909	104.77
573.031	-69.23
573.152	-319.23
573.274	-23.23
573.396	-36.23
573.517	-33.23
573.639	-445.23
573.761	-312.23
573.882	-148.23
574.004	-10.23
574.126	-311.23
574.247	-43.23
574.369	-43.23
574.491	-120.23
574.612	-310.23
574.734	-143.23
574.856	-131.23
574.977	0.77
575.099	-135.23
575.221	-140.23
575.342	-180.23
575.464	-104.23
575.585	-75.23
575.707	-321.23
575.829	113.77
575.95	35.77
576.072	-231.23
576.193	-305.23
576.315	-205.23
576.437	-177.23
576.558	-190.23
576.68	-196.23
576.801	203.77
576.923	-341.23
577.044	60.77
577.166	-394.23
577.287	-144.23
577.409	-190.23
577.531	-204.23
577.652	-58.23
577.774	-374.23
577.895	-151.23
578.017	-302.23
578.138	-263.23
578.26	-174.23
578.381	-56.23
578.503	-237.23
578.624	-254.23
578.746	-347.23
578.867	-201.23
578.988	-113.23
579.11	134.77
579.231	-92.23
579.353	-219.23
579.474	-196.23
579.596	-211.23
579.717	38.77
579.839	-124.23
579.96	-448.23
580.081	-85.23
580.203	-188.23
580.324	-102.23
580.446	-58.23
580.567	-159.23
580.688	187.77
580.81	-303.23
580.931	-226.23
581.053	-377.23
581.174	-123.23
581.295	-242.23
581.417	-52.23
581.538	-46.23
581.659	-20.23
581.781	-128.23
581.902	-267.23
582.024	-338.23
582.145	-358.23
582.266	-278.23
582.388	-164.23
582.509	-350.23
582.63	-140.23
582.751	-222.23
582.873	-214.23
582.994	-227.23
583.115	-188.23
583.237	-102.23
583.358	-249.23
583.479	-419.23
583.6	22.77
583.722	-166.23
583.843	-327.23
583.964	84.77
584.086	-220.23
584.207	-56.23
584.328	-343.23
584.449	-82.23
584.57	-120.23
584.692	-126.23
584.813	859.77
584.934	-155.23
585.055	-276.23
585.177	-6.23
585.298	-136.23
585.419	-313.23
585.54	186.77
585.661	-62.23
585.783	-85.23
585.904	-282.23
586.025	89.77
586.146	-316.23
586.267	-250.23
586.388	-202.23
586.51	268.77
586.631	-300.23
586.752	-332.23
586.873	-236.23
586.994	-337.23
587.115	-326.23
587.236	-237.23
587.357	-404.23
587.479	-285.23
587.6	29.77
587.721	-251.23
587.842	-286.23
587.963	154.77
588.084	96.77
588.205	-332.23
588.326	-210.23
588.447	-140.23
588.568	-164.23
588.689	-113.23
588.81	-115.23
588.931	-163.23
589.052	-267.23
589.174	-284.23
589.295	-101.23
589.416	-114.23
589.537	24.77
589.658	-236.23
589.779	-400.23
589.9	46.77
590.021	-216.23
590.142	-231.23
590.263	-390.23
590.384	-146.23
590.505	186.77
590.626	-315.23
590.747	-165.23
590.867	-34.23
590.988	-69.23
591.109	-192.23
591.23	32.77
591.351	-13.23
591.472	-136.23
591.593	-219.23
591.714	-128.23
591.835	-216.23
591.956	-209.23
592.077	-386.23
592.198	-185.23
592.319	-102.23
592.44	-6.23
592.56	-280.23
592.681	-405.23
592.802	-66.23
592.923	-183.23
593.044	-293.23
593.165	-338.23
593.286	-51.23
593.407	-253.23
593.527	42.77
593.648	-318.23
593.769	-74.23
593.89	80.77
594.011	-179.23
594.132	-257.23
594.252	-111.23
594.373	-299.23
594.494	-394.23
594.615	-187.23
594.736	-208.23
594.856	95.77
594.977	-369.23
595.098	-120.23
595.219	-305.23
595.34	-110.23
595.46	-339.23
595.581	196.77
595.702	-150.23
595.823	-314.23
595.943	-90.23
596.064	-207.23
596.185	121.77
596.306	-402.23
596.426	-301.23
596.547	-356.23
596.668	-94.23
596.788	-118.23
596.909	-143.23
597.03	-96.23
597.151	-137.23
597.271	-265.23
597.392	-219.23
597.513	-99.23
597.633	-3.23
597.754	-115.23
597.875	-189.23
597.995	90.77
598.116	-106.23
598.237	-192.23
598.357	-269.23
598.478	-275.23
598.599	170.77
598.719	-160.23
598.84	-338.23
598.96	-291.23
599.081	-143.23
599.202	-186.23
599.322	-315.23
599.443	-334.23
599.563	-38.23
599.684	48.77
599.805	-244.23
599.925	-369.23
600.046	190.77
600.166	-193.23
600.287	-108.23
600.407	-172.23
600.528	60.77
600.649	-40.23
600.769	-159.23
600.89	-363.23
601.01	-35.23
601.131	-241.23
601.251	143.77
601.372	-135.23
601.492	-231.23
601.613	-289.23
601.733	-262.23
601.854	191.77
601.974	265.77
602.095	118.77
602.215	-361.23
602.336	-379.23
602.456	218.77
602.577	-245.23
602.697	699.77
602.817	-35.23
602.938	-101.23
603.058	-46.23
603.179	-365.23
603.299	-317.23
603.42	-343.23
603.54	-51.23
603.66	-343.23
603.781	-117.23
603.901	-226.23
604.022	132.77
604.142	-162.23
604.262	-182.23
604.383	-250.23
604.503	101.77
604.624	-268.23
604.744	-94.23
604.864	-9.23
604.985	-195.23
605.105	-92.23
605.225	-143.23
605.346	-141.23
605.466	12.77
605.586	191.77
605.707	278.77
605.827	-325.23
605.947	-195.23
606.068	-238.23
606.188	-206.23
606.308	-242.23
606.429	54.77
606.549	-238.23
606.669	-336.23
606.789	-282.23
606.91	-19.23
607.03	-274.23
607.15	-235.23
607.27	-109.23
607.391	10.77
607.511	-264.23
607.631	-287.23
607.751	113.77
607.872	7.77
607.992	-317.23
608.112	16.77
608.232	-249.23
608.353	-337.23
608.473	-278.23
608.593	132.77
608.713	305.77
608.833	-123.23
608.954	-275.23
609.074	-246.23
609.194	-285.23
609.314	199.77
609.434	-38.23
609.554	-196.23
609.675	-60.23
609.795	-259.23
609.915	-285.23
610.035	274.77
610.155	-160.23
610.275	-220.23
610.395	-50.23
610.516	-342.23
610.636	-130.23
610.756	-65.23
610.876	-70.23
610.996	-321.23
611.116	174.77
611.236	-325.23
611.356	-267.23
611.476	-159.23
611.596	-97.23
611.716	120.77
611.836	-314.23
611.957	-315.23
612.077	-146.23
612.197	-69.23
612.317	-283.23
612.437	40.77
612.557	30.77
612.677	-187.23
612.797	-119.23
612.917	-371.23
613.037	-57.23
613.157	-115.23
613.277	-126.23
613.397	105.77
613.517	114.77
613.637	-246.23
613.757	-161.23
613.877	-277.23
613.997	-93.23
614.117	-230.23
614.237	-221.23
614.356	-88.23
614.476	44.77
614.596	18.77
614.716	-214.23
614.836	-183.23
614.956	-7.23
615.076	-104.23
615.196	-332.23
615.316	-136.23
615.436	-36.23
615.556	145.77
615.676	178.77
615.795	-73.23
615.915	-99.23
616.035	-247.23
616.155	-165.23
616.275	-294.23
616.395	-189.23
616.515	-3.23
616.635	-395.23
616.754	-426.23
616.874	-11.23
616.994	-137.23
617.114	231.77
617.234	22.77
617.354	-1.23
617.473	330.77
617.593	-221.23
617.713	-165.23
617.833	-22.23
617.953	-77.23
618.072	-460.23
618.192	-231.23
618.312	89.77
618.432	96.77
618.551	-298.23
618.671	-259.23
618.791	6.77
618.911	-101.23
619.03	-209.23
619.15	-142.23
619.27	-159.23
619.39	-213.23
619.509	-186.23
619.629	-200.23
619.749	-241.23
619.868	-94.23
619.988	-382.23
620.108	-251.23
620.228	729.77
620.347	-114.23
620.467	-289.23
620.587	-323.23
620.706	94.77
620.826	-258.23
620.946	-297.23
621.065	-16.23
621.185	283.77
621.305	-221.23
621.424	-218.23
621.544	-427.23
621.663	-46.23
621.783	-208.23
621.903	195.77
622.022	-327.23
622.142	-123.23
622.261	178.77
622.381	-139.23
622.501	-72.23
622.62	-199.23
622.74	-110.23
622.859	-216.23
622.979	21.77
623.099	-182.23
623.218	10.77
623.338	97.77
623.457	-62.23
623.577	-204.23
623.696	-97.23
623.816	-388.23
623.935	-312.23
624.055	-241.23
624.174	-124.23
624.294	-170.23
624.413	-367.23
624.533	-67.23
624.652	97.77
624.772	-307.23
624.891	-390.23
625.011	37.77
625.13	-220.23
625.25	-359.23
625.369	-225.23
625.489	-172.23
625.608	-272.23
625.728	-162.23
625.847	-158.23
625.966	-291.23
626.086	-231.23
626.205	-339.23
626.325	-90.23
626.444	-103.23
626.564	158.77
626.683	43.77
626.802	-18.23
626.922	105.77
627.041	-27.23
627.161	-158.23
627.28	-22.23
627.399	21.77
627.519	-102.23
627.638	-422.23
627.757	-304.23
627.877	-165.23
627.996	-164.23
628.115	-62.23
628.235	-32.23
628.354	-334.23
628.473	-85.23
628.593	83.77
628.712	-149.23
628.831	-89.23
628.951	-360.23
629.07	69.77
629.189	-112.23
629.309	-160.23
629.428	232.77
629.547	-316.23
629.666	-33.23
629.786	-121.23
629.905	-293.23
630.024	-30.23
630.143	-86.23
630.263	-136.23
630.382	234.77
630.501	-223.23
630.62	-258.23
630.74	-302.23
630.859	84.77
630.978	-168.23
631.097	-370.23
631.216	-280.23
631.336	168.77
631.455	-260.23
631.574	-251.23
631.693	-57.23
631.812	-163.23
631.932	-438.23
632.051	71.77
632.17	352.77
632.289	38.77
632.408	-250.23
632.527	-192.23
632.646	-111.23
632.766	-251.23
632.885	163.77
633.004	-364.23
633.123	-111.23
633.242	-260.23
633.361	625.77
633.48	-276.23
633.599	-226.23
633.718	45.77
633.838	-102.23
633.957	-372.23
634.076	-81.23
634.195	-179.23
634.314	-64.23
634.433	-41.23
634.552	-219.23
634.671	-102.23
634.79	190.77
634.909	57.77
635.028	-62.23
635.147	3.77
635.266	-289.23
635.385	-122.23
635.504	-278.23
635.623	-40.23
635.742	-376.23
635.861	-333.23
635.98	-108.23
636.099	-238.23
636.218	-178.23
636.337	-126.23
636.456	287.77
636.575	-4.23
636.694	-128.23
636.813	-379.23
636.932	-287.23
637.051	-128.23
637.17	-392.23
637.289	-154.23
637.408	-324.23
637.526	-111.23
637.645	-455.23
637.764	-378.23
637.883	-221.23
638.002	52.77
638.121	354.77
638.24	-282.23
638.359	41.77
638.478	-204.23
638.597	-312.23
638.715	382.77
638.834	-135.23
638.953	27.77
639.072	-325.23
639.191	-366.23
639.31	37.77
639.428	-92.23
639.547	-86.23
639.666	-39.23
639.785	-7.23
639.904	-106.23
640.023	-379.23
640.141	-197.23
640.26	-165.23
640.379	-8.23
640.498	-407.23
640.616	-113.23
640.735	-133.23
640.854	74.77
640.973	-340.23
641.092	-39.23
641.21	-29.23
641.329	-149.23
641.448	-17.23
641.567	190.77
641.685	-153.23
641.804	-146.23
641.923	-138.23
642.041	-265.23
642.16	-192.23
642.279	92.77
642.398	-252.23
642.516	-279.23
642.635	138.77
642.754	-156.23
642.872	28.77
642.991	45.77
643.11	-234.23
643.228	-284.23
643.347	-376.23
643.466	-372.23
643.584	43.77
643.703	253.77
643.821	-165.23
643.94	-110.23
644.059	-35.23
644.177	58.77
644.296	-320.23
644.415	-231.23
644.533	-98.23
644.652	1.77
644.77	-368.23
644.889	-337.23
645.008	39.77
645.126	-230.23
645.245	-1.23
645.363	37.77
645.482	-63.23
645.6	-150.23
645.719	-222.23
645.837	-231.23
645.956	-63.23
646.074	-301.23
646.193	-288.23
646.312	0.77
646.43	171.77
646.549	236.77
646.667	-465.23
646.786	-337.23
646.904	36.77
647.023	-34.23
647.141	-365.23
647.26	-36.23
647.378	425.77
647.496	-145.23
647.615	-78.23
647.733	-108.23
647.852	199.77
647.97	-206.23
648.089	-11.23
648.207	-35.23
648.326	104.77
648.444	-151.23
648.562	-198.23
648.681	-77.23
648.799	-148.23
648.918	-73.23
649.036	-131.23
649.154	-259.23
649.273	63.77
649.391	-166.23
649.51	-288.23
649.628	-353.23
649.746	192.77
649.865	-214.23
649.983	-302.23
650.101	-133.23
650.22	-142.23
650.338	-208.23
650.456	-200.23
650.575	-239.23
650.693	-280.23
650.811	-8.23
650.93	-375.23
651.048	1080.77
651.166	314.77
651.285	-129.23
651.403	-61.23
651.521	-124.23
651.639	-116.23
651.758	-125.23
651.876	171.77
651.994	-304.23
652.112	93.77
652.231	-83.23
652.349	-278.23
652.467	-461.23
652.585	-122.23
652.704	11.77
652.822	-404.23
652.94	-381.23
653.058	-39.23
653.176	-216.23
653.295	-125.23
653.413	-38.23
653.531	-213.23
653.649	-129.23
653.767	-318.23
653.886	-358.23
654.004	-202.23
654.122	190.77
654.24	-380.23
654.358	-334.23
654.476	-139.23
654.594	192.77
654.713	-235.23
654.831	-409.23
654.949	-172.23
655.067	-30.23
655.185	-353.23
655.303	-256.23
655.421	-153.23
655.539	129.77
655.658	-140.23
655.776	-228.23
655.894	20.77
656.012	157.77
656.13	-417.23
656.248	-256.23
656.366	-255.23
656.484	-173.23
656.602	-328.23
656.72	-291.23
656.838	-51.23
656.956	-149.23
657.074	-106.23
657.192	-118.23
657.31	-255.23
657.428	-149.23
657.546	-128.23
657.664	-131.23
657.782	-130.23
657.9	108.77
658.018	-235.23
658.136	-167.23
658.254	28.77
658.372	125.77
658.49	-318.23
658.608	-317.23
658.726	8.77
658.844	-7.23
658.962	-270.23
659.08	-355.23
659.198	-52.23
659.316	-108.23
