Data from HR4D30811__13__00013.txt Node

Date: Fri Jan 26 16:33:26 MST 2024
User: Brock
Spectrometer: HR4D3081
Trigger mode: 4
Integration Time (sec): 8.000000E0
Scans to average: 1
Electric dark correction enabled: true
Nonlinearity correction enabled: false
Boxcar width: 0
XAxis mode: Wavelengths
Number of Pixels in Spectrum: 3648
>>>>>Begin Spectral Data<<<<<
197.25	-1199.31
197.385	-1199.31
197.519	-1199.31
197.653	-1215.31
197.787	181.69
197.922	-136.31
198.056	62.69
198.19	-7.31
198.324	-8.31
198.459	-190.31
198.593	424.69
198.727	-43.31
198.861	-98.31
198.996	221.69
199.13	-267.31
199.264	-199.31
199.398	-44.31
199.533	285.69
199.667	100.69
199.801	-66.31
199.935	-269.31
200.07	11.69
200.204	-24.31
200.338	-163.31
200.472	-185.31
200.606	-341.31
200.741	-170.31
200.875	-136.31
201.009	-113.31
201.143	-224.31
201.277	68.69
201.412	79.69
201.546	238.69
201.68	166.69
201.814	-187.31
201.948	46.69
202.082	-94.31
202.217	-327.31
202.351	-118.31
202.485	-67.31
202.619	-234.31
202.753	-338.31
202.887	271.69
203.021	134.69
203.156	210.69
203.29	20.69
203.424	-35.31
203.558	-179.31
203.692	-83.31
203.826	-298.31
203.96	-103.31
204.094	161.69
204.229	-204.31
204.363	-225.31
204.497	-340.31
204.631	-279.31
204.765	-188.31
204.899	-139.31
205.033	-155.31
205.167	-237.31
205.301	-10.31
205.435	-316.31
205.569	-90.31
205.704	-62.31
205.838	-285.31
205.972	-134.31
206.106	525.69
206.24	-184.31
206.374	-224.31
206.508	22.69
206.642	54.69
206.776	-89.31
206.91	176.69
207.044	-5.31
207.178	90.69
207.312	-4.31
207.446	-120.31
207.58	-159.31
207.714	-296.31
207.848	183.69
207.982	-372.31
208.116	24.69
208.25	-246.31
208.384	-145.31
208.518	-208.31
208.652	-219.31
208.786	-249.31
208.92	198.69
209.054	-38.31
209.188	-291.31
209.322	-106.31
209.456	-124.31
209.59	-232.31
209.724	-89.31
209.858	-23.31
209.992	-136.31
210.126	-197.31
210.26	-173.31
210.394	-42.31
210.528	-43.31
210.662	-199.31
210.796	-164.31
210.929	127.69
211.063	15.69
211.197	-100.31
211.331	-6.31
211.465	-188.31
211.599	47.69
211.733	82.69
211.867	-172.31
212.001	-192.31
212.135	-37.31
212.269	-237.31
212.402	-183.31
212.536	85.69
212.67	-124.31
212.804	-248.31
212.938	87.69
213.072	-189.31
213.206	-67.31
213.34	-181.31
213.473	-147.31
213.607	106.69
213.741	-289.31
213.875	-290.31
214.009	-231.31
214.143	-141.31
214.277	-149.31
214.41	-256.31
214.544	226.69
214.678	121.69
214.812	292.69
214.946	-258.31
215.08	-180.31
215.213	-237.31
215.347	-135.31
215.481	-92.31
215.615	-339.31
215.749	14.69
215.882	-231.31
216.016	-311.31
216.15	97.69
216.284	188.69
216.418	2.69
216.551	78.69
216.685	26.69
216.819	-262.31
216.953	-177.31
217.086	232.69
217.22	-153.31
217.354	-30.31
217.488	110.69
217.621	95.69
217.755	-17.31
217.889	-139.31
218.023	-75.31
218.156	72.69
218.29	68.69
218.424	196.69
218.558	-235.31
218.691	-361.31
218.825	-121.31
218.959	396.69
219.092	-177.31
219.226	-348.31
219.36	-294.31
219.494	-16.31
219.627	-179.31
219.761	-217.31
219.895	-122.31
220.028	-302.31
220.162	510.69
220.296	113.69
220.429	-46.31
220.563	-83.31
220.697	-21.31
220.83	-206.31
220.964	-180.31
221.098	-270.31
221.231	-263.31
221.365	55.69
221.499	-213.31
221.632	-253.31
221.766	43.69
221.9	-78.31
222.033	71.69
222.167	101.69
222.3	-230.31
222.434	-10.31
222.568	260.69
222.701	-182.31
222.835	-153.31
222.968	-218.31
223.102	-226.31
223.236	-250.31
223.369	18.69
223.503	-28.31
223.636	-229.31
223.77	-174.31
223.904	-4.31
224.037	-153.31
224.171	92.69
224.304	14.69
224.438	-170.31
224.571	-99.31
224.705	152.69
224.839	-60.31
224.972	-313.31
225.106	-26.31
225.239	-78.31
225.373	66.69
225.506	-53.31
225.64	53.69
225.773	-155.31
225.907	-212.31
226.04	-349.31
226.174	-116.31
226.307	-51.31
226.441	-153.31
226.575	19.69
226.708	120.69
226.842	-93.31
226.975	-191.31
227.109	-201.31
227.242	23.69
227.375	58.69
227.509	-62.31
227.642	-154.31
227.776	53.69
227.909	44.69
228.043	-228.31
228.176	206.69
228.31	-246.31
228.443	297.69
228.577	-61.31
228.71	-149.31
228.844	-20.31
228.977	-282.31
229.111	-172.31
229.244	50.69
229.377	-313.31
229.511	-50.31
229.644	-164.31
229.778	-161.31
229.911	-202.31
230.044	-138.31
230.178	-47.31
230.311	-201.31
230.445	12.69
230.578	-202.31
230.711	-75.31
230.845	341.69
230.978	55.69
231.112	-244.31
231.245	-255.31
231.378	-216.31
231.512	39.69
231.645	-416.31
231.779	-325.31
231.912	-60.31
232.045	57.69
232.179	-161.31
232.312	-156.31
232.445	57.69
232.579	238.69
232.712	129.69
232.845	-206.31
232.979	-363.31
233.112	73.69
233.245	-104.31
233.379	-306.31
233.512	-29.31
233.645	-247.31
233.779	-255.31
233.912	38.69
234.045	-177.31
234.179	13.69
234.312	-166.31
234.445	9.69
234.578	-41.31
234.712	1.69
234.845	38.69
234.978	-159.31
235.112	-64.31
235.245	104.69
235.378	-190.31
235.511	-42.31
235.645	27.69
235.778	-3.31
235.911	-174.31
236.044	-290.31
236.178	274.69
236.311	-253.31
236.444	-267.31
236.577	-251.31
236.711	-95.31
236.844	-403.31
236.977	-152.31
237.11	-200.31
237.243	9.69
237.377	-293.31
237.51	-227.31
237.643	912.69
237.776	-170.31
237.909	-148.31
238.043	-3.31
238.176	-246.31
238.309	-87.31
238.442	-327.31
238.575	-70.31
238.709	405.69
238.842	3.69
238.975	-45.31
239.108	147.69
239.241	-312.31
239.374	-250.31
239.508	-214.31
239.641	198.69
239.774	344.69
239.907	-41.31
240.04	-276.31
240.173	32.69
240.306	233.69
240.44	-165.31
240.573	161.69
240.706	-158.31
240.839	2.69
240.972	-108.31
241.105	-41.31
241.238	23.69
241.371	-38.31
241.504	-57.31
241.638	-131.31
241.771	-51.31
241.904	-153.31
242.037	57.69
242.17	-205.31
242.303	-333.31
242.436	-107.31
242.569	-127.31
242.702	-201.31
242.835	-129.31
242.968	-34.31
243.101	-151.31
243.234	-223.31
243.367	-255.31
243.5	-140.31
243.634	-204.31
243.767	-301.31
243.9	-220.31
244.033	-240.31
244.166	65.69
244.299	-331.31
244.432	-249.31
244.565	-14.31
244.698	-342.31
244.831	-185.31
244.964	-235.31
245.097	-185.31
245.23	3.69
245.363	150.69
245.496	-277.31
245.629	-159.31
245.762	427.69
245.895	-254.31
246.028	-188.31
246.161	459.69
246.294	35.69
246.427	-229.31
246.559	90.69
246.692	-54.31
246.825	-152.31
246.958	-247.31
247.091	-304.31
247.224	-326.31
247.357	-180.31
247.49	143.69
247.623	-167.31
247.756	-274.31
247.889	305.69
248.022	-104.31
248.155	-271.31
248.288	-112.31
248.421	-253.31
248.553	45.69
248.686	-249.31
248.819	61.69
248.952	-254.31
249.085	153.69
249.218	-65.31
249.351	-92.31
249.484	145.69
249.617	-81.31
249.749	-263.31
249.882	-238.31
250.015	-250.31
250.148	-155.31
250.281	-253.31
250.414	-158.31
250.547	-188.31
250.679	204.69
250.812	-102.31
250.945	3.69
251.078	-259.31
251.211	-166.31
251.344	-321.31
251.476	-162.31
251.609	4.69
251.742	-291.31
251.875	-58.31
252.008	-206.31
252.14	-351.31
252.273	-103.31
252.406	157.69
252.539	-44.31
252.672	-74.31
252.804	143.69
252.937	-283.31
253.07	-42.31
253.203	-137.31
253.335	68.69
253.468	-355.31
253.601	-173.31
253.734	-76.31
253.866	-170.31
253.999	369.69
254.132	-15.31
254.265	-152.31
254.397	-171.31
254.53	-161.31
254.663	4.69
254.796	-229.31
254.928	-275.31
255.061	-234.31
255.194	-72.31
255.327	-314.31
255.459	-46.31
255.592	-277.31
255.725	156.69
255.857	-189.31
255.99	6.69
256.123	-220.31
256.255	-259.31
256.388	-97.31
256.521	-256.31
256.653	-328.31
256.786	-243.31
256.919	-190.31
257.051	-243.31
257.184	-14.31
257.317	-230.31
257.449	-265.31
257.582	-99.31
257.715	-182.31
257.847	-223.31
257.98	-115.31
258.113	-197.31
258.245	-116.31
258.378	-335.31
258.51	-277.31
258.643	-259.31
258.776	45.69
258.908	-289.31
259.041	-104.31
259.174	-191.31
259.306	-212.31
259.439	-309.31
259.571	-200.31
259.704	-105.31
259.837	148.69
259.969	-229.31
260.102	-255.31
260.234	187.69
260.367	84.69
260.499	-224.31
260.632	-181.31
260.765	-218.31
260.897	-204.31
261.03	-241.31
261.162	-64.31
261.295	-49.31
261.427	101.69
261.56	-72.31
261.692	-271.31
261.825	-64.31
261.957	118.69
262.09	90.69
262.222	5.69
262.355	-239.31
262.487	-118.31
262.62	-285.31
262.752	-111.31
262.885	-184.31
263.017	2.69
263.15	-190.31
263.282	-64.31
263.415	-254.31
263.547	-39.31
263.68	191.69
263.812	-323.31
263.945	-154.31
264.077	-267.31
264.21	146.69
264.342	-282.31
264.475	-224.31
264.607	131.69
264.74	-377.31
264.872	-81.31
265.004	79.69
265.137	64.69
265.269	332.69
265.402	-269.31
265.534	-193.31
265.667	-178.31
265.799	92.69
265.931	-89.31
266.064	17.69
266.196	-131.31
266.329	-195.31
266.461	-177.31
266.593	42.69
266.726	-344.31
266.858	-143.31
266.99	-115.31
267.123	-175.31
267.255	-23.31
267.388	-166.31
267.52	-260.31
267.652	-186.31
267.785	112.69
267.917	-21.31
268.049	-161.31
268.182	393.69
268.314	55.69
268.446	-359.31
268.579	-236.31
268.711	210.69
268.843	-201.31
268.976	-79.31
269.108	349.69
269.24	144.69
269.373	-24.31
269.505	-197.31
269.637	-160.31
269.77	-192.31
269.902	139.69
270.034	-284.31
270.167	11.69
270.299	-14.31
270.431	2.69
270.563	-191.31
270.696	-8.31
270.828	-103.31
270.96	-88.31
271.092	8.69
271.225	-278.31
271.357	-85.31
271.489	-169.31
271.621	-248.31
271.754	523.69
271.886	-196.31
272.018	-178.31
272.15	284.69
272.283	-266.31
272.415	-182.31
272.547	60.69
272.679	53.69
272.811	-91.31
272.944	-119.31
273.076	-365.31
273.208	-56.31
273.34	-50.31
273.473	-155.31
273.605	69.69
273.737	-289.31
273.869	-37.31
274.001	-408.31
274.133	14.69
274.266	-216.31
274.398	1438.69
274.53	43.69
274.662	140.69
274.794	8.69
274.926	92.69
275.059	-191.31
275.191	-6.31
275.323	-236.31
275.455	72.69
275.587	-232.31
275.719	-185.31
275.851	-144.31
275.983	29.69
276.116	-4.31
276.248	104.69
276.38	-253.31
276.512	-18.31
276.644	-158.31
276.776	-257.31
276.908	-46.31
277.04	-124.31
277.172	38.69
277.304	-187.31
277.437	-29.31
277.569	-207.31
277.701	-237.31
277.833	-82.31
277.965	-168.31
278.097	51.69
278.229	-184.31
278.361	-146.31
278.493	115.69
278.625	215.69
278.757	-6.31
278.889	-281.31
279.021	-152.31
279.153	519.69
279.285	-237.31
279.417	607.69
279.549	47.69
279.681	-95.31
279.813	-177.31
279.945	4.69
280.077	-200.31
280.209	1085.69
280.341	-287.31
280.473	-126.31
280.605	90.69
280.737	-38.31
280.869	209.69
281.001	-68.31
281.133	-340.31
281.265	9.69
281.397	-160.31
281.529	287.69
281.661	-246.31
281.793	-380.31
281.925	-219.31
282.057	-153.31
282.189	-169.31
282.321	-34.31
282.453	43.69
282.585	-260.31
282.717	123.69
282.849	-79.31
282.98	-156.31
283.112	-243.31
283.244	-27.31
283.376	-231.31
283.508	-340.31
283.64	-264.31
283.772	106.69
283.904	89.69
284.036	-267.31
284.168	136.69
284.299	-47.31
284.431	-11.31
284.563	-120.31
284.695	-158.31
284.827	-232.31
284.959	-13.31
285.091	-224.31
285.222	-266.31
285.354	-184.31
285.486	-143.31
285.618	-262.31
285.75	-151.31
285.882	164.69
286.013	53.69
286.145	-33.31
286.277	21.69
286.409	65.69
286.541	29.69
286.673	-212.31
286.804	-207.31
286.936	-68.31
287.068	-208.31
287.2	-234.31
287.332	312.69
287.463	-314.31
287.595	-65.31
287.727	396.69
287.859	-130.31
287.99	-130.31
288.122	-189.31
288.254	42.69
288.386	-174.31
288.517	-278.31
288.649	-146.31
288.781	3.69
288.913	-23.31
289.044	-285.31
289.176	163.69
289.308	-200.31
289.44	-375.31
289.571	-221.31
289.703	-276.31
289.835	33.69
289.967	-253.31
290.098	-313.31
290.23	-301.31
290.362	83.69
290.493	-356.31
290.625	-220.31
290.757	-198.31
290.888	-137.31
291.02	-46.31
291.152	-43.31
291.283	-1.31
291.415	-146.31
291.547	-269.31
291.678	-249.31
291.81	-75.31
291.942	255.69
292.073	-41.31
292.205	-277.31
292.337	66.69
292.468	498.69
292.6	-209.31
292.732	602.69
292.863	-253.31
292.995	-342.31
293.126	32.69
293.258	136.69
293.39	-282.31
293.521	-253.31
293.653	-326.31
293.785	79.69
293.916	-129.31
294.048	33.69
294.179	4.69
294.311	-252.31
294.442	36.69
294.574	-309.31
294.706	-122.31
294.837	62.69
294.969	-58.31
295.1	-207.31
295.232	-241.31
295.363	188.69
295.495	-185.31
295.627	-8.31
295.758	126.69
295.89	-352.31
296.021	19.69
296.153	29.69
296.284	-93.31
296.416	-124.31
296.547	-177.31
296.679	-67.31
296.81	-52.31
296.942	-337.31
297.073	-270.31
297.205	-265.31
297.336	-151.31
297.468	-201.31
297.599	-84.31
297.731	-348.31
297.862	-111.31
297.994	-294.31
298.125	-275.31
298.257	-156.31
298.388	20.69
298.52	1.69
298.651	-97.31
298.782	273.69
298.914	-235.31
299.045	-158.31
299.177	-299.31
299.308	-317.31
299.44	-6.31
299.571	-52.31
299.702	-150.31
299.834	-90.31
299.965	-158.31
300.097	-236.31
300.228	-46.31
300.36	-93.31
300.491	-93.31
300.622	3.69
300.754	-147.31
300.885	-221.31
301.017	-52.31
301.148	-187.31
301.279	-315.31
301.411	-14.31
301.542	-29.31
301.673	-43.31
301.805	-6.31
301.936	-241.31
302.067	-143.31
302.199	-174.31
302.33	-284.31
302.461	306.69
302.593	3.69
302.724	-25.31
302.855	-306.31
302.987	-136.31
303.118	-283.31
303.249	-325.31
303.381	-167.31
303.512	-206.31
303.643	-229.31
303.775	133.69
303.906	-267.31
304.037	-275.31
304.169	-218.31
304.3	-138.31
304.431	-295.31
304.562	-222.31
304.694	-180.31
304.825	-46.31
304.956	96.69
305.087	-188.31
305.219	7.69
305.35	-72.31
305.481	-234.31
305.612	7.69
305.744	-29.31
305.875	-216.31
306.006	492.69
306.137	-233.31
306.269	-65.31
306.4	69.69
306.531	114.69
306.662	-139.31
306.794	113.69
306.925	-230.31
307.056	-263.31
307.187	-53.31
307.318	-119.31
307.45	-176.31
307.581	-230.31
307.712	-259.31
307.843	-105.31
307.974	-89.31
308.105	114.69
308.237	-92.31
308.368	-271.31
308.499	-182.31
308.63	26.69
308.761	-134.31
308.892	-100.31
309.024	-145.31
309.155	-214.31
309.286	-183.31
309.417	-265.31
309.548	-140.31
309.679	-152.31
309.81	-400.31
309.941	424.69
310.073	-24.31
310.204	-318.31
310.335	-5.31
310.466	-224.31
310.597	-260.31
310.728	-167.31
310.859	326.69
310.99	290.69
311.121	-106.31
311.252	-119.31
311.383	-228.31
311.514	-5.31
311.646	-171.31
311.777	-39.31
311.908	-50.31
312.039	-131.31
312.17	-349.31
312.301	-115.31
312.432	-221.31
312.563	-346.31
312.694	-74.31
312.825	-148.31
312.956	-227.31
313.087	28.69
313.218	66.69
313.349	-152.31
313.48	-361.31
313.611	-132.31
313.742	-125.31
313.873	52.69
314.004	-53.31
314.135	-185.31
314.266	-54.31
314.397	-172.31
314.528	-270.31
314.659	-284.31
314.79	-230.31
314.921	37.69
315.052	11.69
315.183	-234.31
315.314	-329.31
315.445	25.69
315.576	-34.31
315.707	-137.31
315.838	-169.31
315.968	-65.31
316.099	-277.31
316.23	-298.31
316.361	81.69
316.492	-125.31
316.623	48.69
316.754	150.69
316.885	-396.31
317.016	-310.31
317.147	-369.31
317.278	51.69
317.408	-258.31
317.539	-279.31
317.67	-290.31
317.801	-66.31
317.932	-171.31
318.063	-218.31
318.194	-139.31
318.325	-5.31
318.455	-361.31
318.586	-160.31
318.717	-29.31
318.848	-336.31
318.979	90.69
319.11	253.69
319.24	44.69
319.371	68.69
319.502	-84.31
319.633	-216.31
319.764	-105.31
319.895	-264.31
320.025	-92.31
320.156	-297.31
320.287	-411.31
320.418	-234.31
320.549	-60.31
320.679	-313.31
320.81	101.69
320.941	-328.31
321.072	-301.31
321.202	-31.31
321.333	271.69
321.464	-405.31
321.595	-249.31
321.726	215.69
321.856	-357.31
321.987	-163.31
322.118	-215.31
322.249	4.69
322.379	-74.31
322.51	17.69
322.641	-70.31
322.771	-355.31
322.902	-105.31
323.033	-97.31
323.164	674.69
323.294	-136.31
323.425	-218.31
323.556	-191.31
323.686	-118.31
323.817	299.69
323.948	-20.31
324.078	-143.31
324.209	132.69
324.34	-216.31
324.47	203.69
324.601	-233.31
324.732	-91.31
324.862	12.69
324.993	-231.31
325.124	-407.31
325.254	-62.31
325.385	-74.31
325.516	498.69
325.646	347.69
325.777	-173.31
325.908	-157.31
326.038	66.69
326.169	-151.31
326.299	-86.31
326.43	119.69
326.561	-170.31
326.691	-147.31
326.822	-279.31
326.952	-227.31
327.083	-73.31
327.214	-257.31
327.344	-86.31
327.475	-15.31
327.605	-67.31
327.736	-163.31
327.867	-301.31
327.997	-133.31
328.128	-83.31
328.258	-328.31
328.389	210.69
328.519	-290.31
328.65	32.69
328.78	-226.31
328.911	-29.31
329.041	113.69
329.172	-342.31
329.303	-223.31
329.433	-179.31
329.564	-267.31
329.694	-246.31
329.825	-211.31
329.955	-33.31
330.086	426.69
330.216	-166.31
330.347	-280.31
330.477	-136.31
330.608	-135.31
330.738	-115.31
330.868	-311.31
330.999	-193.31
331.129	132.69
331.26	-238.31
331.39	-206.31
331.521	153.69
331.651	33.69
331.782	-353.31
331.912	-289.31
332.043	-274.31
332.173	23.69
332.303	-345.31
332.434	94.69
332.564	-22.31
332.695	-232.31
332.825	-340.31
332.956	-223.31
333.086	-110.31
333.216	-266.31
333.347	-51.31
333.477	-395.31
333.608	-102.31
333.738	9.69
333.868	-157.31
333.999	-53.31
334.129	76.69
334.259	-68.31
334.39	-209.31
334.52	68.69
334.65	-160.31
334.781	139.69
334.911	-184.31
335.042	-271.31
335.172	-45.31
335.302	-123.31
335.433	255.69
335.563	-294.31
335.693	8.69
335.824	248.69
335.954	-386.31
336.084	-9.31
336.214	-38.31
336.345	318.69
336.475	72.69
336.605	-249.31
336.736	288.69
336.866	-127.31
336.996	-169.31
337.126	-259.31
337.257	-77.31
337.387	-357.31
337.517	-248.31
337.648	-362.31
337.778	126.69
337.908	70.69
338.038	12.69
338.169	-185.31
338.299	233.69
338.429	-3.31
338.559	-259.31
338.69	-207.31
338.82	358.69
338.95	-6.31
339.08	-465.31
339.21	-310.31
339.341	-90.31
339.471	47.69
339.601	-96.31
339.731	-61.31
339.861	-162.31
339.992	-150.31
340.122	-142.31
340.252	-227.31
340.382	-198.31
340.512	-102.31
340.642	147.69
340.773	-49.31
340.903	-281.31
341.033	-97.31
341.163	-37.31
341.293	83.69
341.423	-229.31
341.554	-310.31
341.684	-25.31
341.814	-149.31
341.944	-193.31
342.074	-114.31
342.204	-201.31
342.334	197.69
342.464	-302.31
342.595	-173.31
342.725	-293.31
342.855	-49.31
342.985	-157.31
343.115	-269.31
343.245	-361.31
343.375	-21.31
343.505	-145.31
343.635	-18.31
343.765	-220.31
343.895	-371.31
344.025	35.69
344.155	-314.31
344.286	-194.31
344.416	-57.31
344.546	102.69
344.676	-95.31
344.806	137.69
344.936	-77.31
345.066	165.69
345.196	-262.31
345.326	-311.31
345.456	94.69
345.586	-252.31
345.716	-292.31
345.846	43.69
345.976	-358.31
346.106	-98.31
346.236	60.69
346.366	16.69
346.496	-178.31
346.626	-183.31
346.756	-207.31
346.886	-260.31
347.016	-342.31
347.146	-204.31
347.276	-245.31
347.406	-225.31
347.536	-58.31
347.666	100.69
347.795	-269.31
347.925	-185.31
348.055	129.69
348.185	-166.31
348.315	-169.31
348.445	85.69
348.575	-176.31
348.705	-250.31
348.835	-262.31
348.965	-177.31
349.095	35.69
349.225	272.69
349.354	-258.31
349.484	-157.31
349.614	-168.31
349.744	-267.31
349.874	-248.31
350.004	-336.31
350.134	-304.31
350.264	-333.31
350.393	-309.31
350.523	129.69
350.653	-353.31
350.783	63.69
350.913	141.69
351.043	-250.31
351.173	-200.31
351.302	-31.31
351.432	166.69
351.562	-133.31
351.692	-81.31
351.822	-190.31
351.951	-398.31
352.081	163.69
352.211	-123.31
352.341	188.69
352.471	106.69
352.6	-168.31
352.73	-233.31
352.86	-132.31
352.99	-40.31
353.12	-95.31
353.249	0.69
353.379	-247.31
353.509	41.69
353.639	-294.31
353.768	-81.31
353.898	-230.31
354.028	-327.31
354.158	-182.31
354.287	-232.31
354.417	-299.31
354.547	-276.31
354.677	-360.31
354.806	-119.31
354.936	-0.31
355.066	-212.31
355.195	-55.31
355.325	-27.31
355.455	-245.31
355.584	149.69
355.714	-250.31
355.844	116.69
355.974	-50.31
356.103	-123.31
356.233	-147.31
356.363	-7.31
356.492	-297.31
356.622	-313.31
356.752	-12.31
356.881	-357.31
357.011	59.69
357.14	135.69
357.27	-160.31
357.4	58.69
357.529	-148.31
357.659	136.69
357.789	21.69
357.918	-299.31
358.048	-349.31
358.177	-126.31
358.307	-263.31
358.437	-82.31
358.566	-243.31
358.696	68.69
358.825	116.69
358.955	-299.31
359.085	19.69
359.214	-422.31
359.344	-94.31
359.473	-272.31
359.603	-151.31
359.733	-225.31
359.862	-326.31
359.992	60.69
360.121	-190.31
360.251	27.69
360.38	-350.31
360.51	103.69
360.639	-198.31
360.769	-72.31
360.898	50.69
361.028	29.69
361.157	-87.31
361.287	-43.31
361.416	-255.31
361.546	-172.31
361.675	-164.31
361.805	-181.31
361.934	14.69
362.064	-167.31
362.193	-179.31
362.323	-308.31
362.452	106.69
362.582	-314.31
362.711	-126.31
362.841	13.69
362.97	-11.31
363.1	-254.31
363.229	-316.31
363.359	-149.31
363.488	-236.31
363.617	-132.31
363.747	-74.31
363.876	-365.31
364.006	-30.31
364.135	-131.31
364.265	-144.31
364.394	-191.31
364.523	286.69
364.653	-265.31
364.782	-7.31
364.912	-291.31
365.041	-249.31
365.17	-284.31
365.3	-40.31
365.429	141.69
365.558	-157.31
365.688	-242.31
365.817	-278.31
365.947	-99.31
366.076	-78.31
366.205	-102.31
366.335	-344.31
366.464	-274.31
366.593	110.69
366.723	-147.31
366.852	-55.31
366.981	-77.31
367.111	-273.31
367.24	-163.31
367.369	-148.31
367.499	503.69
367.628	99.69
367.757	-182.31
367.886	-70.31
368.016	93.69
368.145	-120.31
368.274	-84.31
368.404	-304.31
368.533	-114.31
368.662	14.69
368.791	-199.31
368.921	-383.31
369.05	155.69
369.179	-73.31
369.308	325.69
369.438	-315.31
369.567	-367.31
369.696	-153.31
369.825	-1.31
369.955	-171.31
370.084	-25.31
370.213	-111.31
370.342	-290.31
370.472	-302.31
370.601	390.69
370.73	27.69
370.859	-434.31
370.988	-179.31
371.118	-305.31
371.247	18.69
371.376	90.69
371.505	-98.31
371.634	-31.31
371.763	-116.31
371.893	-254.31
372.022	-182.31
372.151	-278.31
372.28	-315.31
372.409	-397.31
372.538	-177.31
372.667	-64.31
372.797	102.69
372.926	-361.31
373.055	-73.31
373.184	-133.31
373.313	-256.31
373.442	-41.31
373.571	-239.31
373.7	-178.31
373.83	-51.31
373.959	-422.31
374.088	-172.31
374.217	99.69
374.346	-160.31
374.475	-366.31
374.604	-233.31
374.733	247.69
374.862	-130.31
374.991	-288.31
375.12	-63.31
375.249	-54.31
375.378	-240.31
375.508	-322.31
375.637	-309.31
375.766	40.69
375.895	-186.31
376.024	137.69
376.153	-282.31
376.282	-147.31
376.411	-252.31
376.54	-475.31
376.669	-63.31
376.798	-195.31
376.927	-305.31
377.056	81.69
377.185	-69.31
377.314	89.69
377.443	233.69
377.572	-289.31
377.701	-305.31
377.83	129.69
377.959	-18.31
378.088	1711.69
378.217	126.69
378.346	-200.31
378.474	-382.31
378.603	-267.31
378.732	-49.31
378.861	-186.31
378.99	-300.31
379.119	-370.31
379.248	-118.31
379.377	-170.31
379.506	-173.31
379.635	84.69
379.764	-88.31
379.893	-295.31
380.022	-309.31
380.15	-87.31
380.279	-352.31
380.408	-252.31
380.537	-155.31
380.666	-12.31
380.795	-81.31
380.924	-166.31
381.053	-269.31
381.181	-92.31
381.31	742.69
381.439	-260.31
381.568	-178.31
381.697	-193.31
381.826	-154.31
381.955	-276.31
382.083	-116.31
382.212	-336.31
382.341	29.69
382.47	-233.31
382.599	-152.31
382.727	231.69
382.856	-59.31
382.985	-6.31
383.114	-187.31
383.243	-246.31
383.371	-116.31
383.5	-247.31
383.629	-283.31
383.758	-266.31
383.887	-429.31
384.015	-73.31
384.144	-303.31
384.273	-106.31
384.402	-29.31
384.53	-284.31
384.659	-282.31
384.788	-300.31
384.917	-232.31
385.045	-122.31
385.174	-148.31
385.303	-380.31
385.432	42.69
385.56	-92.31
385.689	-185.31
385.818	-67.31
385.946	-56.31
386.075	-258.31
386.204	-264.31
386.332	-167.31
386.461	44.69
386.59	12.69
386.718	-334.31
386.847	-203.31
386.976	-179.31
387.104	-369.31
387.233	-312.31
387.362	-78.31
387.49	-100.31
387.619	-295.31
387.748	-151.31
387.876	138.69
388.005	-109.31
388.134	66.69
388.262	-337.31
388.391	-256.31
388.52	-58.31
388.648	-298.31
388.777	64.69
388.905	-267.31
389.034	-176.31
389.163	-256.31
389.291	-127.31
389.42	21.69
389.548	81.69
389.677	-118.31
389.805	-119.31
389.934	-12.31
390.063	-305.31
390.191	-361.31
390.32	-229.31
390.448	-146.31
390.577	-282.31
390.705	-311.31
390.834	-116.31
390.962	-329.31
391.091	-280.31
391.22	86.69
391.348	154.69
391.477	-33.31
391.605	-336.31
391.734	-209.31
391.862	-210.31
391.991	-302.31
392.119	-312.31
392.248	-173.31
392.376	-117.31
392.505	-175.31
392.633	-179.31
392.762	290.69
392.89	-299.31
393.018	23.69
393.147	-187.31
393.275	-371.31
393.404	-293.31
393.532	-202.31
393.661	-105.31
393.789	-53.31
393.918	-117.31
394.046	-151.31
394.174	-130.31
394.303	-339.31
394.431	-225.31
394.56	19.69
394.688	-357.31
394.817	-401.31
394.945	81.69
395.073	47.69
395.202	-80.31
395.33	-161.31
395.459	-152.31
395.587	94.69
395.715	72.69
395.844	-101.31
395.972	-401.31
396.1	105.69
396.229	-285.31
396.357	-90.31
396.485	-219.31
396.614	-278.31
396.742	85.69
396.87	-116.31
396.999	-13.31
397.127	-304.31
397.255	-56.31
397.384	68.69
397.512	-362.31
397.64	-271.31
397.769	-190.31
397.897	-39.31
398.025	-148.31
398.154	-87.31
398.282	198.69
398.41	-78.31
398.538	-115.31
398.667	-223.31
398.795	-224.31
398.923	24.69
399.052	-196.31
399.18	-191.31
399.308	-130.31
399.436	183.69
399.565	-325.31
399.693	-53.31
399.821	-144.31
399.949	-196.31
400.078	272.69
400.206	-317.31
400.334	-293.31
400.462	-129.31
400.59	-352.31
400.719	-201.31
400.847	-292.31
400.975	-55.31
401.103	-249.31
401.231	-84.31
401.36	-136.31
401.488	-40.31
401.616	-202.31
401.744	-170.31
401.872	-233.31
402	-10.31
402.129	-201.31
402.257	-261.31
402.385	-185.31
402.513	-123.31
402.641	-212.31
402.769	-140.31
402.897	-282.31
403.026	-344.31
403.154	-377.31
403.282	-303.31
403.41	-194.31
403.538	141.69
403.666	-339.31
403.794	-157.31
403.922	-91.31
404.05	-101.31
404.179	-129.31
404.307	-93.31
404.435	-278.31
404.563	-287.31
404.691	-398.31
404.819	467.69
404.947	-292.31
405.075	-264.31
405.203	-363.31
405.331	-241.31
405.459	-282.31
405.587	-78.31
405.715	-230.31
405.843	-205.31
405.971	-103.31
406.099	152.69
406.227	-43.31
406.355	-163.31
406.483	-386.31
406.611	-59.31
406.739	-314.31
406.867	-306.31
406.995	-245.31
407.123	-183.31
407.251	-382.31
407.379	-329.31
407.507	-30.31
407.635	-135.31
407.763	-419.31
407.891	-428.31
408.019	-26.31
408.147	16.69
408.275	172.69
408.403	-317.31
408.531	-378.31
408.659	154.69
408.787	-108.31
408.915	-224.31
409.043	-242.31
409.171	33.69
409.299	52.69
409.427	80.69
409.554	-354.31
409.682	302.69
409.81	-90.31
409.938	-243.31
410.066	15.69
410.194	-72.31
410.322	-337.31
410.45	-202.31
410.578	-373.31
410.705	-315.31
410.833	-123.31
410.961	31.69
411.089	326.69
411.217	-153.31
411.345	-183.31
411.473	-264.31
411.6	-116.31
411.728	-199.31
411.856	-339.31
411.984	-308.31
412.112	-71.31
412.239	-50.31
412.367	-189.31
412.495	79.69
412.623	-265.31
412.751	5.69
412.878	-378.31
413.006	-174.31
413.134	65.69
413.262	172.69
413.39	-76.31
413.517	-88.31
413.645	27.69
413.773	-336.31
413.901	176.69
414.028	-116.31
414.156	-130.31
414.284	-273.31
414.412	20.69
414.539	-214.31
414.667	-256.31
414.795	-254.31
414.923	-430.31
415.05	-210.31
415.178	-42.31
415.306	351.69
415.433	-259.31
415.561	56.69
415.689	38.69
415.816	-240.31
415.944	178.69
416.072	-329.31
416.2	8.69
416.327	246.69
416.455	-291.31
416.583	-217.31
416.71	-246.31
416.838	120.69
416.966	-321.31
417.093	-207.31
417.221	79.69
417.348	-50.31
417.476	-342.31
417.604	-203.31
417.731	-179.31
417.859	28.69
417.987	-83.31
418.114	-271.31
418.242	43.69
418.369	-234.31
418.497	-359.31
418.625	152.69
418.752	-123.31
418.88	-270.31
419.007	165.69
419.135	-72.31
419.263	-202.31
419.39	12.69
419.518	76.69
419.645	9.69
419.773	593.69
419.9	1714.69
420.028	4197.69
420.155	5033.69
420.283	7054.69
420.41	7969.69
420.538	8806.69
420.666	9357.69
420.793	9635.69
420.921	8849.69
421.048	6973.69
421.176	4693.69
421.303	2452.69
421.431	675.69
421.558	-62.31
421.686	233.69
421.813	33.69
421.941	-181.31
422.068	-51.31
422.195	80.69
422.323	56.69
422.45	-363.31
422.578	-103.31
422.705	-218.31
422.833	-174.31
422.96	-280.31
423.088	-37.31
423.215	365.69
423.343	326.69
423.47	-94.31
423.597	188.69
423.725	-118.31
423.852	-122.31
423.98	-82.31
424.107	-330.31
424.234	-167.31
424.362	-231.31
424.489	-239.31
424.617	511.69
424.744	61.69
424.871	-319.31
424.999	-133.31
425.126	91.69
425.253	-62.31
425.381	-216.31
425.508	-329.31
425.636	19.69
425.763	-200.31
425.89	-219.31
426.018	-344.31
426.145	-140.31
426.272	-89.31
426.4	17.69
426.527	81.69
426.654	-275.31
426.781	-85.31
426.909	-106.31
427.036	-84.31
427.163	-397.31
427.291	-290.31
427.418	-192.31
427.545	-143.31
427.673	-369.31
427.8	-359.31
427.927	-327.31
428.054	-80.31
428.182	-196.31
428.309	-189.31
428.436	-237.31
428.563	-313.31
428.691	-47.31
428.818	-237.31
428.945	11.69
429.072	-322.31
429.2	-87.31
429.327	-56.31
429.454	33.69
429.581	-148.31
429.708	-391.31
429.836	-286.31
429.963	-216.31
430.09	-257.31
430.217	-214.31
430.344	-311.31
430.472	-304.31
430.599	-28.31
430.726	-220.31
430.853	-141.31
430.98	-30.31
431.107	-276.31
431.235	-164.31
431.362	-48.31
431.489	-145.31
431.616	240.69
431.743	99.69
431.87	-358.31
431.997	-184.31
432.125	-99.31
432.252	-452.31
432.379	-196.31
432.506	-21.31
432.633	-280.31
432.76	-128.31
432.887	86.69
433.014	-221.31
433.141	-284.31
433.268	-42.31
433.395	-273.31
433.523	-175.31
433.65	-218.31
433.777	-235.31
433.904	-201.31
434.031	-360.31
434.158	-90.31
434.285	20.69
434.412	-369.31
434.539	-145.31
434.666	-345.31
434.793	-255.31
434.92	-307.31
435.047	-40.31
435.174	-175.31
435.301	-22.31
435.428	244.69
435.555	166.69
435.682	-89.31
435.809	-315.31
435.936	97.69
436.063	-284.31
436.19	133.69
436.317	-291.31
436.444	24.69
436.571	-274.31
436.698	-21.31
436.825	55.69
436.952	-14.31
437.079	-91.31
437.206	-6.31
437.333	-311.31
437.46	-201.31
437.587	-137.31
437.714	-324.31
437.84	-186.31
437.967	-383.31
438.094	-365.31
438.221	73.69
438.348	-162.31
438.475	7919.69
438.602	-320.31
438.729	-414.31
438.856	-269.31
438.983	-331.31
439.109	-30.31
439.236	73.69
439.363	-427.31
439.49	-241.31
439.617	-161.31
439.744	-284.31
439.871	425.69
439.997	-250.31
440.124	-80.31
440.251	-92.31
440.378	-265.31
440.505	-196.31
440.632	47.69
440.758	115.69
440.885	248.69
441.012	-272.31
441.139	34.69
441.266	-340.31
441.392	-224.31
441.519	-303.31
441.646	-377.31
441.773	-60.31
441.9	218.69
442.026	-224.31
442.153	-87.31
442.28	-34.31
442.407	-294.31
442.533	52.69
442.66	-57.31
442.787	-103.31
442.914	-313.31
443.04	-242.31
443.167	-154.31
443.294	-129.31
443.421	-89.31
443.547	-313.31
443.674	-186.31
443.801	-58.31
443.927	38.69
444.054	396.69
444.181	64.69
444.307	78.69
444.434	-83.31
444.561	-318.31
444.688	-371.31
444.814	17.69
444.941	-174.31
445.068	-334.31
445.194	198.69
445.321	-270.31
445.447	195.69
445.574	-367.31
445.701	-371.31
445.827	-197.31
445.954	-416.31
446.081	-7.31
446.207	-319.31
446.334	-150.31
446.461	-207.31
446.587	-426.31
446.714	-3.31
446.84	64.69
446.967	-265.31
447.094	-183.31
447.22	82.69
447.347	-160.31
447.473	-285.31
447.6	-94.31
447.726	-371.31
447.853	-118.31
447.98	-152.31
448.106	-103.31
448.233	-162.31
448.359	-243.31
448.486	-64.31
448.612	-255.31
448.739	-69.31
448.865	50.69
448.992	243.69
449.118	-216.31
449.245	-310.31
449.371	-299.31
449.498	-126.31
449.624	-48.31
449.751	-136.31
449.877	-269.31
450.004	-114.31
450.13	-156.31
450.257	-278.31
450.383	-150.31
450.51	-406.31
450.636	-270.31
450.763	-219.31
450.889	-230.31
451.016	-418.31
451.142	-79.31
451.269	-276.31
451.395	241.69
451.521	-187.31
451.648	-265.31
451.774	-98.31
451.901	-386.31
452.027	-186.31
452.154	78.69
452.28	-183.31
452.406	-272.31
452.533	-258.31
452.659	-344.31
452.785	-187.31
452.912	-324.31
453.038	-310.31
453.165	-62.31
453.291	88.69
453.417	136.69
453.544	-293.31
453.67	-242.31
453.796	65.69
453.923	-319.31
454.049	-236.31
454.175	-287.31
454.302	-231.31
454.428	-67.31
454.554	-97.31
454.681	-285.31
454.807	-295.31
454.933	277.69
455.06	-119.31
455.186	-187.31
455.312	81.69
455.439	34.69
455.565	-342.31
455.691	-306.31
455.817	-19.31
455.944	56.69
456.07	-167.31
456.196	-30.31
456.322	-411.31
456.449	-387.31
456.575	-188.31
456.701	-271.31
456.827	-302.31
456.954	-340.31
457.08	-264.31
457.206	-428.31
457.332	-161.31
457.459	-369.31
457.585	-317.31
457.711	-278.31
457.837	-44.31
457.963	-123.31
458.09	-338.31
458.216	-347.31
458.342	-200.31
458.468	-188.31
458.594	-177.31
458.721	-140.31
458.847	-99.31
458.973	-325.31
459.099	-201.31
459.225	-216.31
459.351	-219.31
459.477	-73.31
459.604	-336.31
459.73	-226.31
459.856	-324.31
459.982	-134.31
460.108	-447.31
460.234	-447.31
460.36	-193.31
460.486	-38.31
460.613	-307.31
460.739	65.69
460.865	-256.31
460.991	196.69
461.117	168.69
461.243	-290.31
461.369	-359.31
461.495	-250.31
461.621	-151.31
461.747	-89.31
461.873	-52.31
461.999	-313.31
462.125	-164.31
462.252	29.69
462.378	-123.31
462.504	-35.31
462.63	-145.31
462.756	-326.31
462.882	-220.31
463.008	-208.31
463.134	113.69
463.26	-385.31
463.386	-218.31
463.512	-107.31
463.638	-248.31
463.764	-355.31
463.89	-197.31
464.016	58.69
464.142	-40.31
464.268	-308.31
464.394	-220.31
464.52	-346.31
464.645	-89.31
464.771	21.69
464.897	-280.31
465.023	-247.31
465.149	-130.31
465.275	-340.31
465.401	-289.31
465.527	83.69
465.653	-156.31
465.779	84.69
465.905	-360.31
466.031	-137.31
466.157	-282.31
466.282	-234.31
466.408	-268.31
466.534	-122.31
466.66	-423.31
466.786	-214.31
466.912	-133.31
467.038	-152.31
467.164	-222.31
467.289	-250.31
467.415	-185.31
467.541	-158.31
467.667	-201.31
467.793	-211.31
467.919	-61.31
468.045	120.69
468.17	-287.31
468.296	-175.31
468.422	-219.31
468.548	62.69
468.674	-412.31
468.799	-286.31
468.925	-260.31
469.051	-309.31
469.177	-380.31
469.303	-402.31
469.428	-33.31
469.554	-261.31
469.68	-279.31
469.806	-76.31
469.931	-132.31
470.057	338.69
470.183	-481.31
470.309	-273.31
470.434	128.69
470.56	-167.31
470.686	-100.31
470.812	-170.31
470.937	-329.31
471.063	-263.31
471.189	-98.31
471.315	38.69
471.44	-151.31
471.566	-171.31
471.692	64.69
471.817	-281.31
471.943	-159.31
472.069	-56.31
472.194	-215.31
472.32	-279.31
472.446	-13.31
472.571	-290.31
472.697	-264.31
472.823	-95.31
472.948	-353.31
473.074	-141.31
473.2	-202.31
473.325	-329.31
473.451	-184.31
473.577	-205.31
473.702	-417.31
473.828	-202.31
473.953	-388.31
474.079	-125.31
474.205	-348.31
474.33	-344.31
474.456	-230.31
474.581	176.69
474.707	-242.31
474.833	-263.31
474.958	-54.31
475.084	-25.31
475.209	-244.31
475.335	-279.31
475.46	-104.31
475.586	-206.31
475.712	-70.31
475.837	-211.31
475.963	-208.31
476.088	-413.31
476.214	-277.31
476.339	-250.31
476.465	-281.31
476.59	-365.31
476.716	83.69
476.841	-322.31
476.967	187.69
477.092	-225.31
477.218	-89.31
477.343	-318.31
477.469	213.69
477.594	-257.31
477.72	-338.31
477.845	-108.31
477.971	-245.31
478.096	-104.31
478.222	-214.31
478.347	3318.69
478.472	29.69
478.598	-286.31
478.723	-230.31
478.849	-6.31
478.974	-85.31
479.1	-316.31
479.225	-115.31
479.35	-253.31
479.476	-44.31
479.601	-297.31
479.727	45.69
479.852	-312.31
479.977	-144.31
480.103	-161.31
480.228	194.69
480.354	-195.31
480.479	51.69
480.604	-257.31
480.73	-288.31
480.855	-431.31
480.98	71.69
481.106	-359.31
481.231	-388.31
481.356	-301.31
481.482	-416.31
481.607	-342.31
481.732	-492.31
481.858	-220.31
481.983	-306.31
482.108	-287.31
482.234	-382.31
482.359	-255.31
482.484	73.69
482.61	-293.31
482.735	-160.31
482.86	-386.31
482.985	-211.31
483.111	-171.31
483.236	-118.31
483.361	-251.31
483.486	-322.31
483.612	16.69
483.737	-432.31
483.862	-183.31
483.987	-74.31
484.113	-415.31
484.238	-65.31
484.363	-338.31
484.488	-226.31
484.614	-49.31
484.739	-213.31
484.864	48.69
484.989	435.69
485.114	-104.31
485.24	-183.31
485.365	-252.31
485.49	-414.31
485.615	-29.31
485.74	-192.31
485.865	-109.31
485.991	-171.31
486.116	-99.31
486.241	-368.31
486.366	-360.31
486.491	-63.31
486.616	-270.31
486.742	-219.31
486.867	-176.31
486.992	-345.31
487.117	-315.31
487.242	-320.31
487.367	-456.31
487.492	-207.31
487.617	0.69
487.742	-165.31
487.868	-302.31
487.993	-59.31
488.118	-116.31
488.243	-126.31
488.368	-258.31
488.493	-417.31
488.618	-265.31
488.743	-237.31
488.868	-309.31
488.993	-222.31
489.118	-2.31
489.243	-197.31
489.368	-280.31
489.493	-5.31
489.618	-191.31
489.743	-322.31
489.868	-168.31
489.993	-254.31
490.118	-421.31
490.243	371.69
490.368	-253.31
490.493	-16.31
490.618	27.69
490.743	-431.31
490.868	-145.31
490.993	-166.31
491.118	-13.31
491.243	-344.31
491.368	-286.31
491.493	-14.31
491.618	-174.31
491.743	-233.31
491.868	-261.31
491.993	-217.31
492.118	-295.31
492.243	-138.31
492.368	-90.31
492.493	-272.31
492.618	136.69
492.743	-241.31
492.867	34.69
492.992	-165.31
493.117	-31.31
493.242	-255.31
493.367	-167.31
493.492	30.69
493.617	-273.31
493.742	61.69
493.867	-250.31
493.991	-390.31
494.116	-183.31
494.241	-168.31
494.366	-240.31
494.491	-78.31
494.616	31.69
494.74	-301.31
494.865	-384.31
494.99	-256.31
495.115	-214.31
495.24	-131.31
495.365	-267.31
495.489	-207.31
495.614	-111.31
495.739	-217.31
495.864	-255.31
495.989	-414.31
496.113	-5.31
496.238	-135.31
496.363	-281.31
496.488	-350.31
496.612	-12.31
496.737	-272.31
496.862	-234.31
496.987	-268.31
497.111	-308.31
497.236	-329.31
497.361	-290.31
497.486	87.69
497.61	21.69
497.735	-190.31
497.86	-57.31
497.984	-74.31
498.109	-412.31
498.234	-298.31
498.359	-260.31
498.483	-148.31
498.608	-185.31
498.733	-239.31
498.857	-342.31
498.982	-133.31
499.107	-371.31
499.231	-172.31
499.356	-224.31
499.481	79.69
499.605	-493.31
499.73	-378.31
499.855	24.69
499.979	-322.31
500.104	-217.31
500.228	133.69
500.353	-233.31
500.478	-338.31
500.602	-138.31
500.727	85.69
500.852	-110.31
500.976	-424.31
501.101	-228.31
501.225	167.69
501.35	-322.31
501.474	-324.31
501.599	-20.31
501.724	-205.31
501.848	-206.31
501.973	97.69
502.097	-353.31
502.222	-415.31
502.346	-42.31
502.471	-129.31
502.595	-276.31
502.72	-355.31
502.844	-334.31
502.969	-205.31
503.094	99.69
503.218	-397.31
503.343	-258.31
503.467	-287.31
503.592	-248.31
503.716	-240.31
503.841	-111.31
503.965	188.69
504.089	-204.31
504.214	-352.31
504.338	-246.31
504.463	6.69
504.587	-138.31
504.712	-155.31
504.836	-201.31
504.961	243.69
505.085	129.69
505.21	-271.31
505.334	-263.31
505.458	243.69
505.583	-342.31
505.707	-119.31
505.832	-255.31
505.956	-154.31
506.08	-322.31
506.205	-274.31
506.329	90.69
506.454	-382.31
506.578	-163.31
506.702	-327.31
506.827	115.69
506.951	-78.31
507.076	-172.31
507.2	-366.31
507.324	-43.31
507.449	62.69
507.573	-191.31
507.697	-272.31
507.822	-181.31
507.946	-216.31
508.07	-425.31
508.195	-226.31
508.319	-223.31
508.443	-136.31
508.567	-431.31
508.692	-364.31
508.816	-346.31
508.94	-184.31
509.065	-423.31
509.189	-84.31
509.313	-54.31
509.437	3.69
509.562	-248.31
509.686	-141.31
509.81	-210.31
509.935	-123.31
510.059	46.69
510.183	-287.31
510.307	-373.31
510.431	-1.31
510.556	-180.31
510.68	-271.31
510.804	-431.31
510.928	-186.31
511.053	-407.31
511.177	-369.31
511.301	-206.31
511.425	-283.31
511.549	-172.31
511.674	-140.31
511.798	-182.31
511.922	-96.31
512.046	147.69
512.17	-232.31
512.294	-368.31
512.419	-123.31
512.543	-60.31
512.667	-191.31
512.791	-303.31
512.915	-77.31
513.039	-229.31
513.163	-113.31
513.288	97.69
513.412	-249.31
513.536	8.69
513.66	-304.31
513.784	-213.31
513.908	-139.31
514.032	-165.31
514.156	-37.31
514.28	-62.31
514.404	-202.31
514.528	-220.31
514.653	-64.31
514.777	-0.31
514.901	-95.31
515.025	80.69
515.149	-239.31
515.273	-130.31
515.397	-229.31
515.521	-219.31
515.645	-218.31
515.769	-323.31
515.893	-250.31
516.017	-293.31
516.141	-432.31
516.265	-252.31
516.389	-261.31
516.513	-185.31
516.637	-265.31
516.761	-466.31
516.885	-283.31
517.009	-213.31
517.133	-109.31
517.257	-227.31
517.381	-36.31
517.505	-7.31
517.629	71.69
517.753	-240.31
517.877	-352.31
518.001	-249.31
518.125	-223.31
518.248	-38.31
518.372	-162.31
518.496	-361.31
518.62	-127.31
518.744	-186.31
518.868	-132.31
518.992	-150.31
519.116	-325.31
519.24	408.69
519.364	18.69
519.488	-201.31
519.611	-400.31
519.735	-192.31
519.859	-196.31
519.983	-46.31
520.107	-237.31
520.231	-8.31
520.355	-157.31
520.478	-294.31
520.602	-317.31
520.726	69.69
520.85	-208.31
520.974	20.69
521.098	-278.31
521.221	-342.31
521.345	71.69
521.469	-311.31
521.593	-218.31
521.717	30.69
521.84	-166.31
521.964	-290.31
522.088	-232.31
522.212	-221.31
522.335	-393.31
522.459	-302.31
522.583	182.69
522.707	-367.31
522.83	-430.31
522.954	-322.31
523.078	-309.31
523.202	-42.31
523.325	-249.31
523.449	-184.31
523.573	-181.31
523.697	-306.31
523.82	-214.31
523.944	-214.31
524.068	-214.31
524.191	-250.31
524.315	-390.31
524.439	-165.31
524.562	-32.31
524.686	-255.31
524.81	-316.31
524.933	-267.31
525.057	-254.31
525.181	-100.31
525.304	-373.31
525.428	93.69
525.552	-381.31
525.675	-173.31
525.799	-298.31
525.923	-130.31
526.046	-90.31
526.17	-425.31
526.293	-354.31
526.417	-170.31
526.541	0.69
526.664	-252.31
526.788	-231.31
526.911	-108.31
527.035	-400.31
527.159	-224.31
527.282	-273.31
527.406	-286.31
527.529	-79.31
527.653	-367.31
527.776	-129.31
527.9	-270.31
528.024	-308.31
528.147	-252.31
528.271	20.69
528.394	-12.31
528.518	9.69
528.641	-376.31
528.765	-101.31
528.888	-166.31
529.012	-83.31
529.135	-249.31
529.259	73.69
529.382	-234.31
529.506	-332.31
529.629	-123.31
529.753	-375.31
529.876	116.69
530	24.69
530.123	-143.31
530.247	-337.31
530.37	-273.31
530.493	-136.31
530.617	-323.31
530.74	31.69
530.864	-62.31
530.987	-382.31
531.111	-80.31
531.234	-306.31
531.357	8.69
531.481	-0.31
531.604	-0.31
531.728	-388.31
531.851	-114.31
531.974	-114.31
532.098	-251.31
532.221	-300.31
532.345	-209.31
532.468	-372.31
532.591	133.69
532.715	-196.31
532.838	-268.31
532.961	-215.31
533.085	-312.31
533.208	-154.31
533.331	-393.31
533.455	-20.31
533.578	-208.31
533.701	-124.31
533.825	8.69
533.948	-261.31
534.071	-257.31
534.195	-57.31
534.318	-362.31
534.441	-265.31
534.564	-59.31
534.688	-276.31
534.811	-53.31
534.934	-204.31
535.058	-92.31
535.181	22.69
535.304	-32.31
535.427	-311.31
535.551	-393.31
535.674	-215.31
535.797	-59.31
535.92	-41.31
536.043	-381.31
536.167	-369.31
536.29	-88.31
536.413	-129.31
536.536	-335.31
536.66	-232.31
536.783	-122.31
536.906	-143.31
537.029	-289.31
537.152	-264.31
537.275	-222.31
537.399	96.69
537.522	-455.31
537.645	-225.31
537.768	-231.31
537.891	-114.31
538.014	-187.31
538.138	-290.31
538.261	-257.31
538.384	-155.31
538.507	-364.31
538.63	-252.31
538.753	94.69
538.876	-121.31
538.999	-333.31
539.123	-98.31
539.246	209.69
539.369	212.69
539.492	-279.31
539.615	-325.31
539.738	181.69
539.861	-229.31
539.984	-181.31
540.107	-132.31
540.23	-262.31
540.353	-321.31
540.476	-479.31
540.599	-97.31
540.722	-342.31
540.846	-148.31
540.969	-417.31
541.092	-153.31
541.215	-353.31
541.338	-114.31
541.461	-347.31
541.584	-177.31
541.707	-188.31
541.83	-280.31
541.953	-121.31
542.076	-128.31
542.199	-172.31
542.322	65.69
542.445	137.69
542.567	-247.31
542.69	-153.31
542.813	-255.31
542.936	-74.31
543.059	-189.31
543.182	246.69
543.305	53.69
543.428	-131.31
543.551	-218.31
543.674	63.69
543.797	-61.31
543.92	-206.31
544.043	289.69
544.166	-295.31
544.288	-214.31
544.411	-87.31
544.534	-334.31
544.657	-163.31
544.78	-279.31
544.903	-87.31
545.026	-219.31
545.149	-327.31
545.271	-339.31
545.394	-259.31
545.517	-380.31
545.64	386.69
545.763	-209.31
545.886	-290.31
546.008	-108.31
546.131	-29.31
546.254	-184.31
546.377	-395.31
546.5	-61.31
546.623	-44.31
546.745	-321.31
546.868	-209.31
546.991	30.69
547.114	-157.31
547.236	-190.31
547.359	-335.31
547.482	-139.31
547.605	-287.31
547.728	-264.31
547.85	-352.31
547.973	-296.31
548.096	-200.31
548.219	-73.31
548.341	-220.31
548.464	-373.31
548.587	-149.31
548.709	-229.31
548.832	-136.31
548.955	279.69
549.078	-0.31
549.2	-304.31
549.323	-256.31
549.446	166.69
549.568	-156.31
549.691	-63.31
549.814	-61.31
549.936	-267.31
550.059	-236.31
550.182	-353.31
550.304	-389.31
550.427	-167.31
550.55	-251.31
550.672	-305.31
550.795	250.69
550.917	-294.31
551.04	-191.31
551.163	-109.31
551.285	43.69
551.408	17.69
551.531	305.69
551.653	-352.31
551.776	-122.31
551.898	-109.31
552.021	-93.31
552.143	-194.31
552.266	-222.31
552.389	-204.31
552.511	-361.31
552.634	-384.31
552.756	-313.31
552.879	195.69
553.001	49.69
553.124	-406.31
553.246	-271.31
553.369	49.69
553.492	-184.31
553.614	0.69
553.737	-486.31
553.859	-44.31
553.982	-1.31
554.104	-130.31
554.227	-331.31
554.349	-187.31
554.472	-212.31
554.594	-480.31
554.716	29.69
554.839	-47.31
554.961	-122.31
555.084	-358.31
555.206	-126.31
555.329	-388.31
555.451	-364.31
555.574	-113.31
555.696	-315.31
555.819	-157.31
555.941	-174.31
556.063	-54.31
556.186	-204.31
556.308	-127.31
556.431	235.69
556.553	-43.31
556.675	-270.31
556.798	-218.31
556.92	4.69
557.043	-312.31
557.165	-369.31
557.287	-0.31
557.41	-172.31
557.532	-159.31
557.654	-202.31
557.777	-9.31
557.899	-154.31
558.021	-216.31
558.144	73.69
558.266	46.69
558.388	249.69
558.511	-228.31
558.633	-178.31
558.755	-274.31
558.878	-299.31
559	-19.31
559.122	-413.31
559.244	-293.31
559.367	-214.31
559.489	-27.31
559.611	130.69
559.734	-145.31
559.856	-151.31
559.978	-164.31
560.1	-186.31
560.223	-196.31
560.345	77.69
560.467	-364.31
560.589	-240.31
560.712	-222.31
560.834	192.69
560.956	-322.31
561.078	-224.31
561.2	-104.31
561.323	68.69
561.445	-387.31
561.567	-254.31
561.689	-318.31
561.811	-32.31
561.934	-217.31
562.056	-194.31
562.178	-131.31
562.3	-221.31
562.422	-70.31
562.544	-161.31
562.666	30.69
562.789	-82.31
562.911	-172.31
563.033	-43.31
563.155	-29.31
563.277	-247.31
563.399	-431.31
563.521	-233.31
563.643	-316.31
563.766	-181.31
563.888	-5.31
564.01	-141.31
564.132	-328.31
564.254	-372.31
564.376	34.69
564.498	-143.31
564.62	92.69
564.742	-155.31
564.864	-400.31
564.986	-134.31
565.108	277.69
565.23	-248.31
565.352	-53.31
565.474	-96.31
565.597	157.69
565.719	119.69
565.841	-351.31
565.963	-120.31
566.085	-126.31
566.207	-205.31
566.329	21.69
566.451	2.69
566.573	-206.31
566.695	-195.31
566.817	190.69
566.938	-362.31
567.06	-182.31
567.182	-139.31
567.304	-209.31
567.426	-357.31
567.548	46.69
567.67	-125.31
567.792	-172.31
567.914	-283.31
568.036	-177.31
568.158	-133.31
568.28	-296.31
568.402	-62.31
568.524	-191.31
568.646	-286.31
568.767	-227.31
568.889	6.69
569.011	-181.31
569.133	-241.31
569.255	-376.31
569.377	-337.31
569.499	-135.31
569.621	-217.31
569.742	201.69
569.864	27.69
569.986	279.69
570.108	-37.31
570.23	-350.31
570.352	49.69
570.473	-104.31
570.595	-174.31
570.717	-364.31
570.839	-139.31
570.961	-30.31
571.082	-202.31
571.204	-305.31
571.326	-289.31
571.448	-7.31
571.57	31.69
571.691	-150.31
571.813	-140.31
571.935	54.69
572.057	-145.31
572.178	-321.31
572.3	80.69
572.422	100.69
572.544	196.69
572.665	-266.31
572.787	-335.31
572.909	82.69
573.031	-36.31
573.152	-354.31
573.274	-42.31
573.396	-10.31
573.517	-40.31
573.639	-440.31
573.761	-298.31
573.882	-140.31
574.004	-24.31
574.126	-321.31
574.247	-1.31
574.369	-42.31
574.491	-155.31
574.612	-315.31
574.734	-180.31
574.856	-147.31
574.977	-13.31
575.099	-129.31
575.221	-163.31
575.342	-166.31
575.464	-100.31
575.585	-73.31
575.707	-294.31
575.829	106.69
575.95	6.69
576.072	-225.31
576.193	-303.31
576.315	-213.31
576.437	-171.31
576.558	-215.31
576.68	-223.31
576.801	193.69
576.923	-332.31
577.044	91.69
577.166	-404.31
577.287	-125.31
577.409	-203.31
577.531	-171.31
577.652	-65.31
577.774	-376.31
577.895	-155.31
578.017	-296.31
578.138	-276.31
578.26	-176.31
578.381	-36.31
578.503	-275.31
578.624	-225.31
578.746	-355.31
578.867	-191.31
578.988	-118.31
579.11	134.69
579.231	-100.31
579.353	-211.31
579.474	-208.31
579.596	-229.31
579.717	24.69
579.839	-146.31
579.96	-463.31
580.081	-73.31
580.203	-197.31
580.324	-91.31
580.446	-47.31
580.567	-172.31
580.688	179.69
580.81	-309.31
580.931	-249.31
581.053	-369.31
581.174	-135.31
581.295	-256.31
581.417	-81.31
581.538	-55.31
581.659	-63.31
581.781	-153.31
581.902	-259.31
582.024	-327.31
582.145	-330.31
582.266	-278.31
582.388	-204.31
582.509	-339.31
582.63	-143.31
582.751	-230.31
582.873	-229.31
582.994	-228.31
583.115	-216.31
583.237	-68.31
583.358	-265.31
583.479	-419.31
583.6	5.69
583.722	-167.31
583.843	-315.31
583.964	16.69
584.086	-220.31
584.207	-60.31
584.328	-347.31
584.449	-96.31
584.57	-102.31
584.692	-141.31
584.813	839.69
584.934	-143.31
585.055	-277.31
585.177	-11.31
585.298	-126.31
585.419	-346.31
585.54	182.69
585.661	-67.31
585.783	-87.31
585.904	-274.31
586.025	81.69
586.146	-301.31
586.267	-245.31
586.388	-196.31
586.51	269.69
586.631	-313.31
586.752	-313.31
586.873	-214.31
586.994	-376.31
587.115	-325.31
587.236	-276.31
587.357	-397.31
587.479	-300.31
587.6	-1.31
587.721	-228.31
587.842	-285.31
587.963	130.69
588.084	90.69
588.205	-306.31
588.326	-220.31
588.447	-149.31
588.568	-177.31
588.689	-138.31
588.81	-117.31
588.931	-184.31
589.052	-251.31
589.174	-291.31
589.295	-119.31
589.416	-98.31
589.537	28.69
589.658	-241.31
589.779	-394.31
589.9	36.69
590.021	-232.31
590.142	-245.31
590.263	-412.31
590.384	-152.31
590.505	179.69
590.626	-336.31
590.747	-138.31
590.867	-59.31
590.988	-56.31
591.109	-219.31
591.23	42.69
591.351	-9.31
591.472	-168.31
591.593	-242.31
591.714	-107.31
591.835	-219.31
591.956	-209.31
592.077	-412.31
592.198	-173.31
592.319	-126.31
592.44	-2.31
592.56	-277.31
592.681	-383.31
592.802	-114.31
592.923	-187.31
593.044	-294.31
593.165	-334.31
593.286	-83.31
593.407	-268.31
593.527	-0.31
593.648	-292.31
593.769	-44.31
593.89	83.69
594.011	-158.31
594.132	-267.31
594.252	-107.31
594.373	-281.31
594.494	-398.31
594.615	-201.31
594.736	-226.31
594.856	47.69
594.977	-372.31
595.098	-106.31
595.219	-305.31
595.34	-102.31
595.46	-349.31
595.581	185.69
595.702	-186.31
595.823	-316.31
595.943	-93.31
596.064	-189.31
596.185	90.69
596.306	-402.31
596.426	-296.31
596.547	-344.31
596.668	-62.31
596.788	-100.31
596.909	-165.31
597.03	-95.31
597.151	-153.31
597.271	-274.31
597.392	-214.31
597.513	-90.31
597.633	-8.31
597.754	-117.31
597.875	-179.31
597.995	75.69
598.116	-119.31
598.237	-144.31
598.357	-279.31
598.478	-274.31
598.599	149.69
598.719	-171.31
598.84	-370.31
598.96	-295.31
599.081	-158.31
599.202	-183.31
599.322	-308.31
599.443	-340.31
599.563	-88.31
599.684	67.69
599.805	-260.31
599.925	-384.31
600.046	230.69
600.166	-181.31
600.287	-89.31
600.407	-156.31
600.528	18.69
600.649	-67.31
600.769	-150.31
600.89	-368.31
601.01	-16.31
601.131	-235.31
601.251	137.69
601.372	-126.31
601.492	-237.31
601.613	-265.31
601.733	-237.31
601.854	207.69
601.974	301.69
602.095	136.69
602.215	-352.31
602.336	-339.31
602.456	243.69
602.577	-257.31
602.697	677.69
602.817	12.69
602.938	-127.31
603.058	-54.31
603.179	-363.31
603.299	-308.31
603.42	-355.31
603.54	-73.31
603.66	-370.31
603.781	-101.31
603.901	-214.31
604.022	119.69
604.142	-206.31
604.262	-180.31
604.383	-246.31
604.503	77.69
604.624	-287.31
604.744	-117.31
604.864	-57.31
604.985	-213.31
605.105	-128.31
605.225	-136.31
605.346	-148.31
605.466	14.69
605.586	168.69
605.707	305.69
605.827	-322.31
605.947	-179.31
606.068	-234.31
606.188	-201.31
606.308	-261.31
606.429	57.69
606.549	-248.31
606.669	-357.31
606.789	-285.31
606.91	-49.31
607.03	-285.31
607.15	-237.31
607.27	-93.31
607.391	-27.31
607.511	-289.31
607.631	-294.31
607.751	119.69
607.872	-1.31
607.992	-347.31
608.112	30.69
608.232	-246.31
608.353	-293.31
608.473	-271.31
608.593	81.69
608.713	286.69
608.833	-133.31
608.954	-288.31
609.074	-221.31
609.194	-300.31
609.314	232.69
609.434	-15.31
609.554	-184.31
609.675	-49.31
609.795	-255.31
609.915	-307.31
610.035	257.69
610.155	-174.31
610.275	-198.31
610.395	-61.31
610.516	-370.31
610.636	-103.31
610.756	-52.31
610.876	-57.31
610.996	-293.31
611.116	204.69
611.236	-329.31
611.356	-303.31
611.476	-161.31
611.596	-116.31
611.716	89.69
611.836	-312.31
611.957	-321.31
612.077	-137.31
612.197	-63.31
612.317	-299.31
612.437	48.69
612.557	49.69
612.677	-178.31
612.797	-142.31
612.917	-328.31
613.037	-39.31
613.157	-126.31
613.277	-118.31
613.397	101.69
613.517	99.69
613.637	-230.31
613.757	-192.31
613.877	-276.31
613.997	-114.31
614.117	-253.31
614.237	-227.31
614.356	-110.31
614.476	52.69
614.596	5.69
614.716	-216.31
614.836	-148.31
614.956	-52.31
615.076	-121.31
615.196	-336.31
615.316	-126.31
615.436	-51.31
615.556	135.69
615.676	171.69
615.795	-89.31
615.915	-104.31
616.035	-217.31
616.155	-189.31
616.275	-291.31
616.395	-193.31
616.515	-15.31
616.635	-418.31
616.754	-416.31
616.874	-28.31
616.994	-134.31
617.114	228.69
617.234	63.69
617.354	30.69
617.473	358.69
617.593	-243.31
617.713	-155.31
617.833	-52.31
617.953	-75.31
618.072	-474.31
618.192	-263.31
618.312	97.69
618.432	73.69
618.551	-302.31
618.671	-269.31
618.791	-21.31
618.911	-75.31
619.03	-197.31
619.15	-150.31
619.27	-162.31
619.39	-223.31
619.509	-150.31
619.629	-189.31
619.749	-270.31
619.868	-78.31
619.988	-367.31
620.108	-250.31
620.228	705.69
620.347	-53.31
620.467	-301.31
620.587	-317.31
620.706	65.69
620.826	-276.31
620.946	-281.31
621.065	-21.31
621.185	267.69
621.305	-216.31
621.424	-223.31
621.544	-431.31
621.663	-29.31
621.783	-198.31
621.903	206.69
622.022	-306.31
622.142	-129.31
622.261	157.69
622.381	-128.31
622.501	-56.31
622.62	-170.31
622.74	-108.31
622.859	-208.31
622.979	61.69
623.099	-204.31
623.218	-58.31
623.338	91.69
623.457	-60.31
623.577	-191.31
623.696	-93.31
623.816	-375.31
623.935	-295.31
624.055	-258.31
624.174	-143.31
624.294	-162.31
624.413	-385.31
624.533	-71.31
624.652	69.69
624.772	-269.31
624.891	-415.31
625.011	32.69
625.13	-197.31
625.25	-384.31
625.369	-213.31
625.489	-198.31
625.608	-277.31
625.728	-177.31
625.847	-115.31
625.966	-287.31
626.086	-282.31
626.205	-353.31
626.325	-107.31
626.444	-104.31
626.564	190.69
626.683	-2.31
626.802	11.69
626.922	94.69
627.041	-27.31
627.161	-167.31
627.28	-3.31
627.399	-1.31
627.519	-110.31
627.638	-404.31
627.757	-317.31
627.877	-189.31
627.996	-163.31
628.115	-29.31
628.235	-30.31
628.354	-309.31
628.473	-94.31
628.593	63.69
628.712	-123.31
628.831	-121.31
628.951	-326.31
629.07	73.69
629.189	-149.31
629.309	-175.31
629.428	173.69
629.547	-348.31
629.666	-64.31
629.786	-102.31
629.905	-278.31
630.024	-18.31
630.143	-95.31
630.263	-146.31
630.382	256.69
630.501	-203.31
630.62	-257.31
630.74	-302.31
630.859	70.69
630.978	-205.31
631.097	-349.31
631.216	-285.31
631.336	199.69
631.455	-299.31
631.574	-228.31
631.693	-44.31
631.812	-165.31
631.932	-421.31
632.051	94.69
632.17	368.69
632.289	1.69
632.408	-247.31
632.527	-172.31
632.646	-100.31
632.766	-263.31
632.885	178.69
633.004	-371.31
633.123	-169.31
633.242	-244.31
633.361	609.69
633.48	-271.31
633.599	-252.31
633.718	35.69
633.838	-107.31
633.957	-381.31
634.076	-104.31
634.195	-192.31
634.314	-23.31
634.433	-65.31
634.552	-206.31
634.671	-96.31
634.79	209.69
634.909	35.69
635.028	-38.31
635.147	0.69
635.266	-291.31
635.385	-113.31
635.504	-314.31
635.623	-33.31
635.742	-376.31
635.861	-381.31
635.98	-87.31
636.099	-235.31
636.218	-184.31
636.337	-157.31
636.456	247.69
636.575	34.69
636.694	-154.31
636.813	-360.31
636.932	-329.31
637.051	-101.31
637.17	-407.31
637.289	-133.31
637.408	-297.31
637.526	-90.31
637.645	-447.31
637.764	-388.31
637.883	-225.31
638.002	29.69
638.121	364.69
638.24	-262.31
638.359	48.69
638.478	-188.31
638.597	-315.31
638.715	384.69
638.834	-122.31
638.953	23.69
639.072	-339.31
639.191	-377.31
639.31	-0.31
639.428	-100.31
639.547	-91.31
639.666	-23.31
639.785	-35.31
639.904	-101.31
640.023	-373.31
640.141	-228.31
640.26	-163.31
640.379	3.69
640.498	-392.31
640.616	-122.31
640.735	-166.31
640.854	75.69
640.973	-351.31
641.092	-27.31
641.21	-62.31
641.329	-169.31
641.448	-15.31
641.567	218.69
641.685	-133.31
641.804	-181.31
641.923	-151.31
642.041	-284.31
642.16	-133.31
642.279	73.69
642.398	-213.31
642.516	-286.31
642.635	159.69
642.754	-158.31
642.872	3.69
642.991	66.69
643.11	-213.31
643.228	-276.31
643.347	-365.31
643.466	-378.31
643.584	12.69
643.703	265.69
643.821	-154.31
643.94	-115.31
644.059	-19.31
644.177	64.69
644.296	-314.31
644.415	-243.31
644.533	-104.31
644.652	-8.31
644.77	-369.31
644.889	-346.31
645.008	19.69
645.126	-240.31
645.245	-37.31
645.363	18.69
645.482	-79.31
645.6	-141.31
645.719	-192.31
645.837	-249.31
645.956	-73.31
646.074	-294.31
646.193	-274.31
646.312	-37.31
646.43	166.69
646.549	207.69
646.667	-459.31
646.786	-324.31
646.904	32.69
647.023	-29.31
647.141	-334.31
647.26	-2.31
647.378	413.69
647.496	-167.31
647.615	-72.31
647.733	-132.31
647.852	208.69
647.97	-202.31
648.089	-30.31
648.207	-32.31
648.326	102.69
648.444	-142.31
648.562	-199.31
648.681	-89.31
648.799	-160.31
648.918	-85.31
649.036	-144.31
649.154	-256.31
649.273	91.69
649.391	-148.31
649.51	-273.31
649.628	-351.31
649.746	215.69
649.865	-217.31
649.983	-301.31
650.101	-122.31
650.22	-128.31
650.338	-213.31
650.456	-237.31
650.575	-222.31
650.693	-285.31
650.811	-7.31
650.93	-369.31
651.048	1091.69
651.166	299.69
651.285	-139.31
651.403	-46.31
651.521	-139.31
651.639	-114.31
651.758	34.69
651.876	191.69
651.994	-314.31
652.112	114.69
652.231	-71.31
652.349	-310.31
652.467	-482.31
652.585	-97.31
652.704	-11.31
652.822	-406.31
652.94	-383.31
653.058	-57.31
653.176	-197.31
653.295	-163.31
653.413	-22.31
653.531	-195.31
653.649	-133.31
653.767	-329.31
653.886	-334.31
654.004	-234.31
654.122	144.69
654.24	-370.31
654.358	-345.31
654.476	-138.31
654.594	175.69
654.713	-255.31
654.831	-407.31
654.949	-199.31
655.067	-12.31
655.185	-354.31
655.303	-275.31
655.421	-150.31
655.539	124.69
655.658	-149.31
655.776	-220.31
655.894	28.69
656.012	169.69
656.13	-403.31
656.248	-226.31
656.366	-254.31
656.484	-175.31
656.602	-311.31
656.72	-292.31
656.838	-45.31
656.956	-143.31
657.074	-75.31
657.192	-120.31
657.31	-223.31
657.428	-182.31
657.546	-110.31
657.664	-130.31
657.782	-121.31
657.9	94.69
658.018	-261.31
658.136	-178.31
658.254	65.69
658.372	115.69
658.49	-331.31
658.608	-321.31
658.726	-15.31
658.844	-0.31
658.962	-265.31
659.08	-375.31
659.198	-63.31
659.316	-105.31
