Data from HR4D30811__0__16-26-14-645.txt Node

Date: Fri Jan 26 16:26:14 MST 2024
User: Brock
Spectrometer: HR4D3081
Trigger mode: 4
Integration Time (sec): 8.000000E0
Scans to average: 1
Electric dark correction enabled: true
Nonlinearity correction enabled: false
Boxcar width: 0
XAxis mode: Wavelengths
Number of Pixels in Spectrum: 3648
>>>>>Begin Spectral Data<<<<<
197.25	-1182.69
197.385	-1182.69
197.519	-1182.69
197.653	-1199.69
197.787	231.31
197.922	-137.69
198.056	99.31
198.19	27.31
198.324	50.31
198.459	-212.69
198.593	428.31
198.727	-24.69
198.861	-132.69
198.996	217.31
199.13	-297.69
199.264	-219.69
199.398	-72.69
199.533	275.31
199.667	158.31
199.801	-50.69
199.935	-270.69
200.07	-27.69
200.204	2.31
200.338	-145.69
200.472	-203.69
200.606	-321.69
200.741	-132.69
200.875	-119.69
201.009	-68.69
201.143	-196.69
201.277	113.31
201.412	118.31
201.546	225.31
201.68	184.31
201.814	-138.69
201.948	98.31
202.082	-72.69
202.217	-321.69
202.351	-117.69
202.485	-26.69
202.619	-251.69
202.753	-350.69
202.887	303.31
203.021	122.31
203.156	225.31
203.29	42.31
203.424	-10.69
203.558	-183.69
203.692	-89.69
203.826	-293.69
203.96	-87.69
204.094	168.31
204.229	-175.69
204.363	-197.69
204.497	-324.69
204.631	-274.69
204.765	-196.69
204.899	-142.69
205.033	-120.69
205.167	-201.69
205.301	2.31
205.435	-337.69
205.569	-96.69
205.704	-51.69
205.838	-305.69
205.972	-119.69
206.106	551.31
206.24	-186.69
206.374	-208.69
206.508	33.31
206.642	10.31
206.776	-99.69
206.91	167.31
207.044	29.31
207.178	151.31
207.312	-0.69
207.446	-120.69
207.58	-152.69
207.714	-299.69
207.848	134.31
207.982	-397.69
208.116	51.31
208.25	-232.69
208.384	-151.69
208.518	-180.69
208.652	-235.69
208.786	-267.69
208.92	227.31
209.054	-17.69
209.188	-268.69
209.322	-107.69
209.456	-101.69
209.59	-238.69
209.724	-51.69
209.858	1.31
209.992	-113.69
210.126	-142.69
210.26	-138.69
210.394	-66.69
210.528	-10.69
210.662	-181.69
210.796	-143.69
210.929	161.31
211.063	2.31
211.197	-63.69
211.331	-7.69
211.465	-189.69
211.599	76.31
211.733	117.31
211.867	-218.69
212.001	-156.69
212.135	-34.69
212.269	-213.69
212.402	-209.69
212.536	81.31
212.67	-105.69
212.804	-235.69
212.938	78.31
213.072	-196.69
213.206	-73.69
213.34	-144.69
213.473	-120.69
213.607	120.31
213.741	-301.69
213.875	-285.69
214.009	-227.69
214.143	-138.69
214.277	-144.69
214.41	-242.69
214.544	243.31
214.678	103.31
214.812	297.31
214.946	-249.69
215.08	-185.69
215.213	-185.69
215.347	-111.69
215.481	-79.69
215.615	-338.69
215.749	20.31
215.882	-248.69
216.016	-264.69
216.15	104.31
216.284	166.31
216.418	24.31
216.551	119.31
216.685	17.31
216.819	-276.69
216.953	-171.69
217.086	258.31
217.22	-137.69
217.354	19.31
217.488	88.31
217.621	148.31
217.755	-5.69
217.889	-139.69
218.023	-55.69
218.156	108.31
218.29	73.31
218.424	202.31
218.558	-229.69
218.691	-396.69
218.825	-95.69
218.959	421.31
219.092	-167.69
219.226	-321.69
219.36	-304.69
219.494	-32.69
219.627	-173.69
219.761	-217.69
219.895	-62.69
220.028	-322.69
220.162	554.31
220.296	146.31
220.429	-11.69
220.563	-71.69
220.697	-26.69
220.83	-210.69
220.964	-169.69
221.098	-253.69
221.231	-277.69
221.365	88.31
221.499	-225.69
221.632	-230.69
221.766	30.31
221.9	-99.69
222.033	94.31
222.167	133.31
222.3	-191.69
222.434	4.31
222.568	266.31
222.701	-169.69
222.835	-130.69
222.968	-226.69
223.102	-213.69
223.236	-243.69
223.369	46.31
223.503	32.31
223.636	-234.69
223.77	-136.69
223.904	29.31
224.037	-164.69
224.171	94.31
224.304	1.31
224.438	-170.69
224.571	-73.69
224.705	163.31
224.839	-30.69
224.972	-363.69
225.106	11.31
225.239	-70.69
225.373	47.31
225.506	-65.69
225.64	77.31
225.773	-151.69
225.907	-197.69
226.04	-333.69
226.174	-94.69
226.307	-58.69
226.441	-142.69
226.575	3.31
226.708	164.31
226.842	-104.69
226.975	-161.69
227.109	-179.69
227.242	5.31
227.375	78.31
227.509	-41.69
227.642	-170.69
227.776	51.31
227.909	76.31
228.043	-214.69
228.176	209.31
228.31	-239.69
228.443	323.31
228.577	-43.69
228.71	-114.69
228.844	17.31
228.977	-234.69
229.111	-135.69
229.244	56.31
229.377	-297.69
229.511	-33.69
229.644	-184.69
229.778	-147.69
229.911	-214.69
230.044	-134.69
230.178	-30.69
230.311	-202.69
230.445	50.31
230.578	-196.69
230.711	-43.69
230.845	342.31
230.978	74.31
231.112	-220.69
231.245	-248.69
231.378	-230.69
231.512	53.31
231.645	-464.69
231.779	-342.69
231.912	-45.69
232.045	60.31
232.179	-161.69
232.312	-144.69
232.445	117.31
232.579	265.31
232.712	141.31
232.845	-163.69
232.979	-345.69
233.112	80.31
233.245	-103.69
233.379	-307.69
233.512	-6.69
233.645	-244.69
233.779	-251.69
233.912	52.31
234.045	-151.69
234.179	28.31
234.312	-156.69
234.445	36.31
234.578	-28.69
234.712	5.31
234.845	68.31
234.978	-171.69
235.112	-83.69
235.245	122.31
235.378	-166.69
235.511	-33.69
235.645	48.31
235.778	29.31
235.911	-149.69
236.044	-311.69
236.178	302.31
236.311	-251.69
236.444	-249.69
236.577	-264.69
236.711	-70.69
236.844	-420.69
236.977	-136.69
237.11	-172.69
237.243	26.31
237.377	-261.69
237.51	-214.69
237.643	963.31
237.776	-147.69
237.909	-124.69
238.043	2.31
238.176	-240.69
238.309	-86.69
238.442	-319.69
238.575	-62.69
238.709	383.31
238.842	2.31
238.975	-16.69
239.108	189.31
239.241	-308.69
239.374	-231.69
239.508	-191.69
239.641	201.31
239.774	351.31
239.907	-43.69
240.04	-244.69
240.173	57.31
240.306	236.31
240.44	-163.69
240.573	193.31
240.706	-145.69
240.839	-19.69
240.972	-75.69
241.105	-54.69
241.238	41.31
241.371	-24.69
241.504	-57.69
241.638	-121.69
241.771	-13.69
241.904	-141.69
242.037	22.31
242.17	-174.69
242.303	-341.69
242.436	-90.69
242.569	-92.69
242.702	-199.69
242.835	-170.69
242.968	-55.69
243.101	-107.69
243.234	-215.69
243.367	-237.69
243.5	-116.69
243.634	-152.69
243.767	-290.69
243.9	-210.69
244.033	-262.69
244.166	79.31
244.299	-344.69
244.432	-234.69
244.565	28.31
244.698	-342.69
244.831	-173.69
244.964	-272.69
245.097	-186.69
245.23	32.31
245.363	160.31
245.496	-255.69
245.629	-125.69
245.762	472.31
245.895	-239.69
246.028	-205.69
246.161	418.31
246.294	50.31
246.427	-199.69
246.559	122.31
246.692	-26.69
246.825	-141.69
246.958	-227.69
247.091	-303.69
247.224	-321.69
247.357	-205.69
247.49	128.31
247.623	-199.69
247.756	-262.69
247.889	289.31
248.022	-112.69
248.155	-235.69
248.288	-82.69
248.421	-205.69
248.553	84.31
248.686	-236.69
248.819	84.31
248.952	-221.69
249.085	190.31
249.218	-33.69
249.351	-67.69
249.484	208.31
249.617	-71.69
249.749	-238.69
249.882	-254.69
250.015	-244.69
250.148	-161.69
250.281	-238.69
250.414	-156.69
250.547	-159.69
250.679	193.31
250.812	-81.69
250.945	8.31
251.078	-261.69
251.211	-152.69
251.344	-277.69
251.476	-142.69
251.609	5.31
251.742	-264.69
251.875	-79.69
252.008	-179.69
252.14	-340.69
252.273	-95.69
252.406	215.31
252.539	-17.69
252.672	-76.69
252.804	146.31
252.937	-253.69
253.07	-9.69
253.203	-106.69
253.335	99.31
253.468	-421.69
253.601	-131.69
253.734	-68.69
253.866	-125.69
253.999	399.31
254.132	-6.69
254.265	-138.69
254.397	-172.69
254.53	-108.69
254.663	41.31
254.796	-197.69
254.928	-273.69
255.061	-221.69
255.194	-63.69
255.327	-334.69
255.459	-18.69
255.592	-271.69
255.725	183.31
255.857	-178.69
255.99	-9.69
256.123	-279.69
256.255	-234.69
256.388	-50.69
256.521	-251.69
256.653	-320.69
256.786	-249.69
256.919	-141.69
257.051	-269.69
257.184	-26.69
257.317	-234.69
257.449	-263.69
257.582	-55.69
257.715	-189.69
257.847	-224.69
257.98	-90.69
258.113	-181.69
258.245	-115.69
258.378	-430.69
258.51	-267.69
258.643	-253.69
258.776	23.31
258.908	-286.69
259.041	-63.69
259.174	-200.69
259.306	-198.69
259.439	-283.69
259.571	-189.69
259.704	-116.69
259.837	189.31
259.969	-205.69
260.102	-239.69
260.234	236.31
260.367	60.31
260.499	-183.69
260.632	-129.69
260.765	-162.69
260.897	-204.69
261.03	-222.69
261.162	-79.69
261.295	-68.69
261.427	123.31
261.56	-61.69
261.692	-278.69
261.825	-58.69
261.957	130.31
262.09	124.31
262.222	3.31
262.355	-240.69
262.487	-113.69
262.62	-255.69
262.752	-95.69
262.885	-142.69
263.017	20.31
263.15	-188.69
263.282	-64.69
263.415	-238.69
263.547	-18.69
263.68	218.31
263.812	-295.69
263.945	-99.69
264.077	-260.69
264.21	204.31
264.342	-280.69
264.475	-232.69
264.607	168.31
264.74	-503.69
264.872	-88.69
265.004	145.31
265.137	54.31
265.269	346.31
265.402	-265.69
265.534	-156.69
265.667	-152.69
265.799	106.31
265.931	-68.69
266.064	14.31
266.196	-121.69
266.329	-178.69
266.461	-165.69
266.593	20.31
266.726	-340.69
266.858	-123.69
266.99	-107.69
267.123	-144.69
267.255	-21.69
267.388	-111.69
267.52	-210.69
267.652	-184.69
267.785	113.31
267.917	25.31
268.049	-144.69
268.182	388.31
268.314	78.31
268.446	-361.69
268.579	-195.69
268.711	215.31
268.843	-207.69
268.976	-78.69
269.108	383.31
269.24	174.31
269.373	-28.69
269.505	-160.69
269.637	-115.69
269.77	-199.69
269.902	177.31
270.034	-279.69
270.167	67.31
270.299	-4.69
270.431	10.31
270.563	-187.69
270.696	17.31
270.828	-125.69
270.96	-92.69
271.092	8.31
271.225	-226.69
271.357	-59.69
271.489	-185.69
271.621	-257.69
271.754	537.31
271.886	-239.69
272.018	-164.69
272.15	295.31
272.283	-299.69
272.415	-167.69
272.547	81.31
272.679	89.31
272.811	-91.69
272.944	-96.69
273.076	-376.69
273.208	-10.69
273.34	-64.69
273.473	-146.69
273.605	93.31
273.737	-293.69
273.869	-40.69
274.001	-444.69
274.133	5.31
274.266	-229.69
274.398	1481.31
274.53	66.31
274.662	147.31
274.794	22.31
274.926	81.31
275.059	-173.69
275.191	-5.69
275.323	-239.69
275.455	110.31
275.587	-222.69
275.719	-137.69
275.851	-112.69
275.983	47.31
276.116	-5.69
276.248	93.31
276.38	-262.69
276.512	-1.69
276.644	-140.69
276.776	-246.69
276.908	-26.69
277.04	-119.69
277.172	66.31
277.304	-182.69
277.437	-12.69
277.569	-176.69
277.701	-238.69
277.833	-82.69
277.965	-181.69
278.097	43.31
278.229	-192.69
278.361	-138.69
278.493	97.31
278.625	252.31
278.757	12.31
278.889	-264.69
279.021	-146.69
279.153	520.31
279.285	-215.69
279.417	564.31
279.549	64.31
279.681	-80.69
279.813	-195.69
279.945	61.31
280.077	-207.69
280.209	1072.31
280.341	-267.69
280.473	-143.69
280.605	91.31
280.737	-1.69
280.869	185.31
281.001	-48.69
281.133	-363.69
281.265	-26.69
281.397	-114.69
281.529	274.31
281.661	-276.69
281.793	-384.69
281.925	-192.69
282.057	-116.69
282.189	-159.69
282.321	-13.69
282.453	35.31
282.585	-255.69
282.717	137.31
282.849	-73.69
282.98	-133.69
283.112	-217.69
283.244	-15.69
283.376	-255.69
283.508	-387.69
283.64	-273.69
283.772	108.31
283.904	83.31
284.036	-308.69
284.168	143.31
284.299	-26.69
284.431	1.31
284.563	-140.69
284.695	-146.69
284.827	-254.69
284.959	-11.69
285.091	-255.69
285.222	-265.69
285.354	-173.69
285.486	-79.69
285.618	-270.69
285.75	-131.69
285.882	191.31
286.013	64.31
286.145	-70.69
286.277	4.31
286.409	107.31
286.541	55.31
286.673	-229.69
286.804	-198.69
286.936	-62.69
287.068	-212.69
287.2	-244.69
287.332	329.31
287.463	-362.69
287.595	-39.69
287.727	412.31
287.859	-142.69
287.99	-110.69
288.122	-190.69
288.254	74.31
288.386	-178.69
288.517	-301.69
288.649	-160.69
288.781	-4.69
288.913	14.31
289.044	-346.69
289.176	188.31
289.308	-166.69
289.44	-374.69
289.571	-197.69
289.703	-242.69
289.835	94.31
289.967	-237.69
290.098	-334.69
290.23	-322.69
290.362	114.31
290.493	-371.69
290.625	-225.69
290.757	-166.69
290.888	-113.69
291.02	-22.69
291.152	9.31
291.283	6.31
291.415	-124.69
291.547	-267.69
291.678	-238.69
291.81	-35.69
291.942	289.31
292.073	4.31
292.205	-267.69
292.337	90.31
292.468	515.31
292.6	-198.69
292.732	607.31
292.863	-215.69
292.995	-335.69
293.126	48.31
293.258	152.31
293.39	-254.69
293.521	-251.69
293.653	-328.69
293.785	116.31
293.916	-147.69
294.048	61.31
294.179	43.31
294.311	-231.69
294.442	15.31
294.574	-274.69
294.706	-115.69
294.837	97.31
294.969	-40.69
295.1	-184.69
295.232	-247.69
295.363	203.31
295.495	-189.69
295.627	-9.69
295.758	106.31
295.89	-377.69
296.021	33.31
296.153	48.31
296.284	-68.69
296.416	-90.69
296.547	-144.69
296.679	-73.69
296.81	-35.69
296.942	-370.69
297.073	-238.69
297.205	-256.69
297.336	-181.69
297.468	-211.69
297.599	-37.69
297.731	-330.69
297.862	-119.69
297.994	-355.69
298.125	-253.69
298.257	-118.69
298.388	21.31
298.52	12.31
298.651	-94.69
298.782	282.31
298.914	-245.69
299.045	-136.69
299.177	-289.69
299.308	-316.69
299.44	24.31
299.571	-40.69
299.702	-121.69
299.834	-102.69
299.965	-109.69
300.097	-213.69
300.228	-28.69
300.36	-60.69
300.491	-69.69
300.622	2.31
300.754	-117.69
300.885	-183.69
301.017	-26.69
301.148	-178.69
301.279	-343.69
301.411	24.31
301.542	-29.69
301.673	-30.69
301.805	51.31
301.936	-230.69
302.067	-114.69
302.199	-126.69
302.33	-265.69
302.461	346.31
302.593	5.31
302.724	-9.69
302.855	-320.69
302.987	-89.69
303.118	-309.69
303.249	-418.69
303.381	-104.69
303.512	-195.69
303.643	-217.69
303.775	114.31
303.906	-235.69
304.037	-233.69
304.169	-210.69
304.3	-138.69
304.431	-293.69
304.562	-218.69
304.694	-152.69
304.825	-46.69
304.956	128.31
305.087	-181.69
305.219	7.31
305.35	-45.69
305.481	-198.69
305.612	22.31
305.744	13.31
305.875	-157.69
306.006	517.31
306.137	-226.69
306.269	-61.69
306.4	79.31
306.531	116.31
306.662	-127.69
306.794	114.31
306.925	-205.69
307.056	-247.69
307.187	-18.69
307.318	-93.69
307.45	-134.69
307.581	-232.69
307.712	-226.69
307.843	-39.69
307.974	-68.69
308.105	113.31
308.237	-45.69
308.368	-334.69
308.499	-135.69
308.63	22.31
308.761	-90.69
308.892	-120.69
309.024	-119.69
309.155	-208.69
309.286	-182.69
309.417	-280.69
309.548	-144.69
309.679	-152.69
309.81	-451.69
309.941	460.31
310.073	-22.69
310.204	-391.69
310.335	3.31
310.466	-153.69
310.597	-269.69
310.728	-138.69
310.859	329.31
310.99	301.31
311.121	-68.69
311.252	-115.69
311.383	-236.69
311.514	-1.69
311.646	-160.69
311.777	-28.69
311.908	-76.69
312.039	-92.69
312.17	-397.69
312.301	-123.69
312.432	-206.69
312.563	-361.69
312.694	-24.69
312.825	-142.69
312.956	-205.69
313.087	64.31
313.218	75.31
313.349	-147.69
313.48	-361.69
313.611	-138.69
313.742	-88.69
313.873	79.31
314.004	-44.69
314.135	-160.69
314.266	-37.69
314.397	-189.69
314.528	-291.69
314.659	-273.69
314.79	-227.69
314.921	46.31
315.052	28.31
315.183	-257.69
315.314	-350.69
315.445	77.31
315.576	-40.69
315.707	-121.69
315.838	-140.69
315.968	-46.69
316.099	-318.69
316.23	-334.69
316.361	79.31
316.492	-122.69
316.623	56.31
316.754	185.31
316.885	-429.69
317.016	-357.69
317.147	-405.69
317.278	62.31
317.408	-226.69
317.539	-285.69
317.67	-271.69
317.801	-17.69
317.932	-165.69
318.063	-178.69
318.194	-134.69
318.325	9.31
318.455	-460.69
318.586	-144.69
318.717	-49.69
318.848	-305.69
318.979	104.31
319.11	285.31
319.24	33.31
319.371	57.31
319.502	-90.69
319.633	-197.69
319.764	-118.69
319.895	-251.69
320.025	-95.69
320.156	-337.69
320.287	-458.69
320.418	-220.69
320.549	-48.69
320.679	-389.69
320.81	144.31
320.941	-380.69
321.072	-366.69
321.202	-28.69
321.333	256.31
321.464	-438.69
321.595	-242.69
321.726	226.31
321.856	-380.69
321.987	-150.69
322.118	-227.69
322.249	15.31
322.379	-26.69
322.51	33.31
322.641	-95.69
322.771	-356.69
322.902	-75.69
323.033	-82.69
323.164	693.31
323.294	-163.69
323.425	-191.69
323.556	-174.69
323.686	-101.69
323.817	301.31
323.948	16.31
324.078	-106.69
324.209	160.31
324.34	-196.69
324.47	233.31
324.601	-198.69
324.732	-54.69
324.862	25.31
324.993	-211.69
325.124	-554.69
325.254	-96.69
325.385	-55.69
325.516	514.31
325.646	378.31
325.777	-152.69
325.908	-161.69
326.038	54.31
326.169	-117.69
326.299	-55.69
326.43	126.31
326.561	-140.69
326.691	-143.69
326.822	-282.69
326.952	-197.69
327.083	-50.69
327.214	-240.69
327.344	-94.69
327.475	25.31
327.605	-46.69
327.736	-151.69
327.867	-305.69
327.997	-144.69
328.128	-42.69
328.258	-332.69
328.389	256.31
328.519	-324.69
328.65	39.31
328.78	-192.69
328.911	3.31
329.041	100.31
329.172	-350.69
329.303	-221.69
329.433	-161.69
329.564	-251.69
329.694	-250.69
329.825	-196.69
329.955	-10.69
330.086	452.31
330.216	-149.69
330.347	-268.69
330.477	-110.69
330.608	-109.69
330.738	-109.69
330.868	-304.69
330.999	-170.69
331.129	126.31
331.26	-234.69
331.39	-202.69
331.521	164.31
331.651	56.31
331.782	-337.69
331.912	-281.69
332.043	-255.69
332.173	69.31
332.303	-385.69
332.434	108.31
332.564	-14.69
332.695	-216.69
332.825	-362.69
332.956	-188.69
333.086	-86.69
333.216	-279.69
333.347	-26.69
333.477	-468.69
333.608	-82.69
333.738	29.31
333.868	-127.69
333.999	-25.69
334.129	52.31
334.259	-66.69
334.39	-241.69
334.52	83.31
334.65	-147.69
334.781	159.31
334.911	-184.69
335.042	-257.69
335.172	-1.69
335.302	-133.69
335.433	280.31
335.563	-260.69
335.693	12.31
335.824	249.31
335.954	-406.69
336.084	12.31
336.214	-10.69
336.345	310.31
336.475	68.31
336.605	-182.69
336.736	325.31
336.866	-99.69
336.996	-143.69
337.126	-268.69
337.257	-60.69
337.387	-378.69
337.517	-223.69
337.648	-365.69
337.778	159.31
337.908	63.31
338.038	6.31
338.169	-152.69
338.299	251.31
338.429	-44.69
338.559	-229.69
338.69	-150.69
338.82	380.31
338.95	-31.69
339.08	-541.69
339.21	-342.69
339.341	-86.69
339.471	44.31
339.601	-69.69
339.731	-34.69
339.861	-168.69
339.992	-115.69
340.122	-126.69
340.252	-209.69
340.382	-178.69
340.512	-63.69
340.642	182.31
340.773	-60.69
340.903	-330.69
341.033	-73.69
341.163	-45.69
341.293	98.31
341.423	-218.69
341.554	-284.69
341.684	-38.69
341.814	-133.69
341.944	-141.69
342.074	-103.69
342.204	-170.69
342.334	171.31
342.464	-301.69
342.595	-146.69
342.725	-329.69
342.855	-39.69
342.985	-124.69
343.115	-268.69
343.245	-402.69
343.375	18.31
343.505	-121.69
343.635	4.31
343.765	-205.69
343.895	-397.69
344.025	18.31
344.155	-353.69
344.286	-176.69
344.416	-70.69
344.546	119.31
344.676	-71.69
344.806	157.31
344.936	-44.69
345.066	198.31
345.196	-271.69
345.326	-333.69
345.456	107.31
345.586	-239.69
345.716	-289.69
345.846	60.31
345.976	-425.69
346.106	-101.69
346.236	78.31
346.366	22.31
346.496	-183.69
346.626	-154.69
346.756	-208.69
346.886	-214.69
347.016	-353.69
347.146	-197.69
347.276	-261.69
347.406	-214.69
347.536	-24.69
347.666	123.31
347.795	-253.69
347.925	-157.69
348.055	110.31
348.185	-156.69
348.315	-189.69
348.445	117.31
348.575	-153.69
348.705	-278.69
348.835	-269.69
348.965	-133.69
349.095	1.31
349.225	259.31
349.354	-237.69
349.484	-172.69
349.614	-155.69
349.744	-226.69
349.874	-273.69
350.004	-402.69
350.134	-285.69
350.264	-341.69
350.393	-309.69
350.523	121.31
350.653	-343.69
350.783	53.31
350.913	182.31
351.043	-204.69
351.173	-175.69
351.302	-0.69
351.432	173.31
351.562	-100.69
351.692	-63.69
351.822	-176.69
351.951	-421.69
352.081	176.31
352.211	-104.69
352.341	195.31
352.471	125.31
352.6	-133.69
352.73	-216.69
352.86	-143.69
352.99	-10.69
353.12	-40.69
353.249	2.31
353.379	-243.69
353.509	56.31
353.639	-290.69
353.768	-54.69
353.898	-225.69
354.028	-312.69
354.158	-178.69
354.287	-185.69
354.417	-299.69
354.547	-265.69
354.677	-393.69
354.806	-139.69
354.936	25.31
355.066	-193.69
355.195	-34.69
355.325	-20.69
355.455	-255.69
355.584	225.31
355.714	-217.69
355.844	122.31
355.974	-5.69
356.103	-123.69
356.233	-145.69
356.363	64.31
356.492	-264.69
356.622	-284.69
356.752	-13.69
356.881	-426.69
357.011	68.31
357.14	124.31
357.27	-152.69
357.4	64.31
357.529	-158.69
357.659	113.31
357.789	50.31
357.918	-295.69
358.048	-378.69
358.177	-114.69
358.307	-265.69
358.437	-63.69
358.566	-226.69
358.696	75.31
358.825	128.31
358.955	-306.69
359.085	31.31
359.214	-507.69
359.344	-117.69
359.473	-274.69
359.603	-119.69
359.733	-202.69
359.862	-343.69
359.992	76.31
360.121	-174.69
360.251	25.31
360.38	-371.69
360.51	102.31
360.639	-182.69
360.769	-46.69
360.898	100.31
361.028	68.31
361.157	-70.69
361.287	-47.69
361.416	-262.69
361.546	-137.69
361.675	-148.69
361.805	-182.69
361.934	16.31
362.064	-144.69
362.193	-175.69
362.323	-275.69
362.452	119.31
362.582	-238.69
362.711	-142.69
362.841	31.31
362.97	13.31
363.1	-245.69
363.229	-329.69
363.359	-117.69
363.488	-232.69
363.617	-106.69
363.747	-83.69
363.876	-462.69
364.006	-43.69
364.135	-81.69
364.265	-141.69
364.394	-160.69
364.523	290.31
364.653	-250.69
364.782	18.31
364.912	-260.69
365.041	-263.69
365.17	-260.69
365.3	-67.69
365.429	204.31
365.558	-168.69
365.688	-235.69
365.817	-322.69
365.947	-69.69
366.076	-59.69
366.205	-69.69
366.335	-392.69
366.464	-258.69
366.593	121.31
366.723	-138.69
366.852	-137.69
366.981	-67.69
367.111	-278.69
367.24	-146.69
367.369	-121.69
367.499	547.31
367.628	147.31
367.757	-160.69
367.886	-49.69
368.016	107.31
368.145	-63.69
368.274	-69.69
368.404	-322.69
368.533	-68.69
368.662	55.31
368.791	-191.69
368.921	-492.69
369.05	111.31
369.179	-46.69
369.308	290.31
369.438	-340.69
369.567	-433.69
369.696	-146.69
369.825	-0.69
369.955	-183.69
370.084	-9.69
370.213	-109.69
370.342	-303.69
370.472	-313.69
370.601	421.31
370.73	56.31
370.859	-513.69
370.988	-166.69
371.118	-303.69
371.247	32.31
371.376	136.31
371.505	-65.69
371.634	-20.69
371.763	-126.69
371.893	-267.69
372.022	-150.69
372.151	-249.69
372.28	-364.69
372.409	-488.69
372.538	-171.69
372.667	-93.69
372.797	107.31
372.926	-401.69
373.055	-69.69
373.184	-120.69
373.313	-248.69
373.442	-33.69
373.571	-236.69
373.7	-109.69
373.83	-39.69
373.959	-527.69
374.088	-145.69
374.217	105.31
374.346	-173.69
374.475	-429.69
374.604	-246.69
374.733	279.31
374.862	-119.69
374.991	-255.69
375.12	-49.69
375.249	-25.69
375.378	-261.69
375.508	-285.69
375.637	-346.69
375.766	52.31
375.895	-195.69
376.024	115.31
376.153	-270.69
376.282	-129.69
376.411	-254.69
376.54	-508.69
376.669	-60.69
376.798	-173.69
376.927	-249.69
377.056	93.31
377.185	-44.69
377.314	108.31
377.443	265.31
377.572	-291.69
377.701	-213.69
377.83	162.31
377.959	1.31
378.088	1698.31
378.217	144.31
378.346	-188.69
378.474	-398.69
378.603	-306.69
378.732	-49.69
378.861	-167.69
378.99	-284.69
379.119	-436.69
379.248	-82.69
379.377	-165.69
379.506	-140.69
379.635	121.31
379.764	-88.69
379.893	-266.69
380.022	-372.69
380.15	-79.69
380.279	-394.69
380.408	-261.69
380.537	-147.69
380.666	-7.69
380.795	-4.69
380.924	-139.69
381.053	-244.69
381.181	-58.69
381.31	784.31
381.439	-286.69
381.568	-151.69
381.697	-151.69
381.826	-116.69
381.955	-296.69
382.083	-110.69
382.212	-330.69
382.341	31.31
382.47	-249.69
382.599	-138.69
382.727	231.31
382.856	20.31
382.985	14.31
383.114	-179.69
383.243	-241.69
383.371	-106.69
383.5	-265.69
383.629	-248.69
383.758	-264.69
383.887	-519.69
384.015	-73.69
384.144	-289.69
384.273	-84.69
384.402	-33.69
384.53	-242.69
384.659	-267.69
384.788	-281.69
384.917	-217.69
385.045	-96.69
385.174	-145.69
385.303	-465.69
385.432	47.31
385.56	-114.69
385.689	-162.69
385.818	-64.69
385.946	-27.69
386.075	-242.69
386.204	-267.69
386.332	-124.69
386.461	33.31
386.59	27.31
386.718	-348.69
386.847	-184.69
386.976	-155.69
387.104	-407.69
387.233	-319.69
387.362	-80.69
387.49	-77.69
387.619	-283.69
387.748	-132.69
387.876	146.31
388.005	-89.69
388.134	112.31
388.262	-314.69
388.391	-236.69
388.52	-26.69
388.648	-345.69
388.777	69.31
388.905	-219.69
389.034	-169.69
389.163	-281.69
389.291	-123.69
389.42	46.31
389.548	99.31
389.677	-136.69
389.805	-75.69
389.934	-22.69
390.063	-316.69
390.191	-421.69
390.32	-236.69
390.448	-132.69
390.577	-274.69
390.705	-332.69
390.834	-138.69
390.962	-305.69
391.091	-280.69
391.22	97.31
391.348	176.31
391.477	-20.69
391.605	-344.69
391.734	-204.69
391.862	-210.69
391.991	-339.69
392.119	-314.69
392.248	-137.69
392.376	-115.69
392.505	-125.69
392.633	-215.69
392.762	323.31
392.89	-310.69
393.018	62.31
393.147	-186.69
393.275	-402.69
393.404	-287.69
393.532	-182.69
393.661	-85.69
393.789	-48.69
393.918	-113.69
394.046	-136.69
394.174	-119.69
394.303	-377.69
394.431	-233.69
394.56	19.31
394.688	-459.69
394.817	-500.69
394.945	76.31
395.073	74.31
395.202	-86.69
395.33	-153.69
395.459	-139.69
395.587	91.31
395.715	94.31
395.844	-100.69
395.972	-469.69
396.1	78.31
396.229	-261.69
396.357	-38.69
396.485	-220.69
396.614	-281.69
396.742	85.31
396.87	-89.69
396.999	-16.69
397.127	-340.69
397.255	-34.69
397.384	84.31
397.512	-393.69
397.64	-236.69
397.769	-154.69
397.897	-31.69
398.025	-123.69
398.154	-71.69
398.282	190.31
398.41	-65.69
398.538	-77.69
398.667	-177.69
398.795	-244.69
398.923	50.31
399.052	-192.69
399.18	-165.69
399.308	-105.69
399.436	184.31
399.565	-317.69
399.693	-58.69
399.821	-138.69
399.949	-186.69
400.078	307.31
400.206	-318.69
400.334	-343.69
400.462	-147.69
400.59	-367.69
400.719	-222.69
400.847	-267.69
400.975	-38.69
401.103	-226.69
401.231	-74.69
401.36	-123.69
401.488	-10.69
401.616	-173.69
401.744	-159.69
401.872	-238.69
402	18.31
402.129	-210.69
402.257	-269.69
402.385	-163.69
402.513	-114.69
402.641	-183.69
402.769	-152.69
402.897	-279.69
403.026	-435.69
403.154	-398.69
403.282	-307.69
403.41	-175.69
403.538	170.31
403.666	-345.69
403.794	-147.69
403.922	-76.69
404.05	-63.69
404.179	-120.69
404.307	-74.69
404.435	-288.69
404.563	-308.69
404.691	-424.69
404.819	465.31
404.947	-291.69
405.075	-258.69
405.203	-359.69
405.331	-245.69
405.459	-308.69
405.587	-85.69
405.715	-254.69
405.843	-216.69
405.971	-83.69
406.099	179.31
406.227	-35.69
406.355	-175.69
406.483	-415.69
406.611	-44.69
406.739	-299.69
406.867	-345.69
406.995	-201.69
407.123	-163.69
407.251	-498.69
407.379	-318.69
407.507	-43.69
407.635	-120.69
407.763	-522.69
407.891	-541.69
408.019	-6.69
408.147	38.31
408.275	201.31
408.403	-389.69
408.531	-407.69
408.659	214.31
408.787	-106.69
408.915	-208.69
409.043	-243.69
409.171	34.31
409.299	22.31
409.427	104.31
409.554	-446.69
409.682	267.31
409.81	-78.69
409.938	-196.69
410.066	55.31
410.194	-82.69
410.322	-328.69
410.45	-197.69
410.578	-463.69
410.705	-304.69
410.833	-89.69
410.961	96.31
411.089	327.31
411.217	-138.69
411.345	-147.69
411.473	-261.69
411.6	-54.69
411.728	-177.69
411.856	-334.69
411.984	-317.69
412.112	-74.69
412.239	-74.69
412.367	-205.69
412.495	88.31
412.623	-248.69
412.751	27.31
412.878	-406.69
413.006	-156.69
413.134	71.31
413.262	174.31
413.39	-43.69
413.517	-81.69
413.645	70.31
413.773	-402.69
413.901	211.31
414.028	-189.69
414.156	-127.69
414.284	-264.69
414.412	71.31
414.539	-194.69
414.667	-223.69
414.795	-215.69
414.923	-470.69
415.05	-169.69
415.178	-32.69
415.306	303.31
415.433	-256.69
415.561	51.31
415.689	46.31
415.816	-256.69
415.944	161.31
416.072	-336.69
416.2	5.31
416.327	240.31
416.455	-260.69
416.583	-214.69
416.71	-247.69
416.838	134.31
416.966	-346.69
417.093	-148.69
417.221	81.31
417.348	-28.69
417.476	-366.69
417.604	-171.69
417.731	-148.69
417.859	22.31
417.987	-91.69
418.114	-280.69
418.242	54.31
418.369	-219.69
418.497	-411.69
418.625	153.31
418.752	-137.69
418.88	-281.69
419.007	139.31
419.135	-75.69
419.263	-175.69
419.39	32.31
419.518	64.31
419.645	28.31
419.773	649.31
419.9	1732.31
420.028	4165.31
420.155	5017.31
420.283	7119.31
420.41	8009.31
420.538	8809.31
420.666	9512.31
420.793	9648.31
420.921	8828.31
421.048	6994.31
421.176	4718.31
421.303	2465.31
421.431	673.31
421.558	-27.69
421.686	245.31
421.813	68.31
421.941	-154.69
422.068	-62.69
422.195	106.31
422.323	53.31
422.45	-434.69
422.578	-87.69
422.705	-209.69
422.833	-127.69
422.96	-290.69
423.088	-22.69
423.215	363.31
423.343	318.31
423.47	-81.69
423.597	250.31
423.725	-134.69
423.852	-94.69
423.98	-60.69
424.107	-410.69
424.234	-135.69
424.362	-238.69
424.489	-234.69
424.617	558.31
424.744	-24.69
424.871	-330.69
424.999	-133.69
425.126	93.31
425.253	-64.69
425.381	-209.69
425.508	-343.69
425.636	31.31
425.763	-212.69
425.89	-217.69
426.018	-359.69
426.145	-121.69
426.272	-66.69
426.4	49.31
426.527	76.31
426.654	-301.69
426.781	-46.69
426.909	-91.69
427.036	-93.69
427.163	-447.69
427.291	-303.69
427.418	-173.69
427.545	-117.69
427.673	-373.69
427.8	-433.69
427.927	-316.69
428.054	-62.69
428.182	-165.69
428.309	-188.69
428.436	-235.69
428.563	-366.69
428.691	-53.69
428.818	-214.69
428.945	5.31
429.072	-363.69
429.2	-14.69
429.327	-26.69
429.454	68.31
429.581	-108.69
429.708	-452.69
429.836	-259.69
429.963	-214.69
430.09	-249.69
430.217	-237.69
430.344	-327.69
430.472	-326.69
430.599	-13.69
430.726	-212.69
430.853	-154.69
430.98	-54.69
431.107	-270.69
431.235	-114.69
431.362	-37.69
431.489	-111.69
431.616	250.31
431.743	118.31
431.87	-445.69
431.997	-170.69
432.125	-96.69
432.252	-568.69
432.379	-185.69
432.506	-36.69
432.633	-316.69
432.76	-141.69
432.887	142.31
433.014	-195.69
433.141	-274.69
433.268	17.31
433.395	-248.69
433.523	-177.69
433.65	-157.69
433.777	-204.69
433.904	-165.69
434.031	-411.69
434.158	-83.69
434.285	26.31
434.412	-499.69
434.539	-126.69
434.666	-363.69
434.793	-274.69
434.92	-340.69
435.047	-15.69
435.174	-144.69
435.301	13.31
435.428	254.31
435.555	188.31
435.682	-42.69
435.809	-350.69
435.936	116.31
436.063	-263.69
436.19	146.31
436.317	-287.69
436.444	18.31
436.571	-280.69
436.698	-29.69
436.825	101.31
436.952	-0.69
437.079	-76.69
437.206	10.31
437.333	-307.69
437.46	-156.69
437.587	-93.69
437.714	-348.69
437.84	-142.69
437.967	-398.69
438.094	-413.69
438.221	62.31
438.348	-143.69
438.475	7961.31
438.602	-307.69
438.729	-544.69
438.856	-279.69
438.983	-328.69
439.109	4.31
439.236	124.31
439.363	-527.69
439.49	-234.69
439.617	-139.69
439.744	-278.69
439.871	421.31
439.997	-248.69
440.124	-52.69
440.251	-59.69
440.378	-246.69
440.505	-195.69
440.632	96.31
440.758	157.31
440.885	265.31
441.012	-290.69
441.139	55.31
441.266	-352.69
441.392	-214.69
441.519	-312.69
441.646	-428.69
441.773	-43.69
441.9	247.31
442.026	-201.69
442.153	-78.69
442.28	-46.69
442.407	-273.69
442.533	73.31
442.66	-21.69
442.787	-74.69
442.914	-271.69
443.04	-217.69
443.167	-149.69
443.294	-120.69
443.421	-94.69
443.547	-309.69
443.674	-147.69
443.801	-72.69
443.927	64.31
444.054	422.31
444.181	91.31
444.307	99.31
444.434	-100.69
444.561	-328.69
444.688	-465.69
444.814	36.31
444.941	-181.69
445.068	-347.69
445.194	209.31
445.321	-267.69
445.447	221.31
445.574	-436.69
445.701	-482.69
445.827	-161.69
445.954	-481.69
446.081	-6.69
446.207	-343.69
446.334	-119.69
446.461	-195.69
446.587	-495.69
446.714	25.31
446.84	80.31
446.967	-278.69
447.094	-195.69
447.22	97.31
447.347	-122.69
447.473	-268.69
447.6	-75.69
447.726	-498.69
447.853	-121.69
447.98	-140.69
448.106	-64.69
448.233	-90.69
448.359	-221.69
448.486	-51.69
448.612	-221.69
448.739	-29.69
448.865	59.31
448.992	250.31
449.118	-215.69
449.245	-374.69
449.371	-336.69
449.498	-99.69
449.624	-37.69
449.751	-86.69
449.877	-264.69
450.004	-111.69
450.13	-123.69
450.257	-319.69
450.383	-135.69
450.51	-421.69
450.636	-226.69
450.763	-194.69
450.889	-234.69
451.016	-492.69
451.142	-53.69
451.269	-271.69
451.395	237.31
451.521	-176.69
451.648	-264.69
451.774	-117.69
451.901	-496.69
452.027	-176.69
452.154	94.31
452.28	-170.69
452.406	-267.69
452.533	-256.69
452.659	-354.69
452.785	-173.69
452.912	-336.69
453.038	-345.69
453.165	-11.69
453.291	134.31
453.417	141.31
453.544	-306.69
453.67	-223.69
453.796	105.31
453.923	-335.69
454.049	-229.69
454.175	-259.69
454.302	-244.69
454.428	-34.69
454.554	-91.69
454.681	-270.69
454.807	-328.69
454.933	299.31
455.06	-101.69
455.186	-183.69
455.312	119.31
455.439	24.31
455.565	-361.69
455.691	-321.69
455.817	-0.69
455.944	74.31
456.07	-138.69
456.196	-32.69
456.322	-505.69
456.449	-491.69
456.575	-161.69
456.701	-251.69
456.827	-292.69
456.954	-411.69
457.08	-267.69
457.206	-512.69
457.332	-137.69
457.459	-430.69
457.585	-282.69
457.711	-252.69
457.837	-6.69
457.963	-91.69
458.09	-281.69
458.216	-334.69
458.342	-162.69
458.468	-172.69
458.594	-122.69
458.721	-111.69
458.847	-89.69
458.973	-406.69
459.099	-173.69
459.225	-193.69
459.351	-199.69
459.477	-62.69
459.604	-343.69
459.73	-219.69
459.856	-308.69
459.982	-111.69
460.108	-472.69
460.234	-505.69
460.36	-210.69
460.486	-25.69
460.613	-302.69
460.739	60.31
460.865	-233.69
460.991	242.31
461.117	175.31
461.243	-309.69
461.369	-401.69
461.495	-226.69
461.621	-151.69
461.747	-69.69
461.873	-10.69
461.999	-306.69
462.125	-165.69
462.252	29.31
462.378	-103.69
462.504	-15.69
462.63	-71.69
462.756	-334.69
462.882	-194.69
463.008	-202.69
463.134	72.31
463.26	-406.69
463.386	-209.69
463.512	-86.69
463.638	-230.69
463.764	-355.69
463.89	-215.69
464.016	51.31
464.142	-29.69
464.268	-315.69
464.394	-214.69
464.52	-397.69
464.645	-84.69
464.771	31.31
464.897	-253.69
465.023	-252.69
465.149	-88.69
465.275	-405.69
465.401	-303.69
465.527	88.31
465.653	-112.69
465.779	93.31
465.905	-374.69
466.031	-125.69
466.157	-274.69
466.282	-199.69
466.408	-256.69
466.534	-104.69
466.66	-509.69
466.786	-140.69
466.912	-91.69
467.038	-149.69
467.164	-197.69
467.289	-261.69
467.415	-180.69
467.541	-172.69
467.667	-174.69
467.793	-208.69
467.919	-69.69
468.045	160.31
468.17	-303.69
468.296	-147.69
468.422	-216.69
468.548	54.31
468.674	-466.69
468.799	-289.69
468.925	-222.69
469.051	-352.69
469.177	-492.69
469.303	-427.69
469.428	-8.69
469.554	-244.69
469.68	-276.69
469.806	-74.69
469.931	-145.69
470.057	371.31
470.183	-611.69
470.309	-255.69
470.434	146.31
470.56	-177.69
470.686	-95.69
470.812	-166.69
470.937	-335.69
471.063	-307.69
471.189	-43.69
471.315	86.31
471.44	-101.69
471.566	-205.69
471.692	93.31
471.817	-305.69
471.943	-153.69
472.069	-14.69
472.194	-197.69
472.32	-251.69
472.446	-15.69
472.571	-353.69
472.697	-240.69
472.823	-102.69
472.948	-422.69
473.074	-97.69
473.2	-197.69
473.325	-335.69
473.451	-203.69
473.577	-184.69
473.702	-485.69
473.828	-197.69
473.953	-477.69
474.079	-127.69
474.205	-347.69
474.33	-357.69
474.456	-226.69
474.581	232.31
474.707	-283.69
474.833	-247.69
474.958	-57.69
475.084	6.31
475.209	-259.69
475.335	-304.69
475.46	-91.69
475.586	-199.69
475.712	-43.69
475.837	-206.69
475.963	-227.69
476.088	-484.69
476.214	-291.69
476.339	-232.69
476.465	-285.69
476.59	-406.69
476.716	97.31
476.841	-332.69
476.967	222.31
477.092	-212.69
477.218	-107.69
477.343	-299.69
477.469	233.31
477.594	-265.69
477.72	-318.69
477.845	-120.69
477.971	-223.69
478.096	-117.69
478.222	-219.69
478.347	3325.31
478.472	1.31
478.598	-308.69
478.723	-260.69
478.849	-16.69
478.974	-62.69
479.1	-355.69
479.225	-87.69
479.35	-240.69
479.476	-52.69
479.601	-301.69
479.727	50.31
479.852	-284.69
479.977	-68.69
480.103	-156.69
480.228	174.31
480.354	-156.69
480.479	72.31
480.604	-240.69
480.73	-282.69
480.855	-519.69
480.98	50.31
481.106	-458.69
481.231	-413.69
481.356	-278.69
481.482	-516.69
481.607	-357.69
481.732	-600.69
481.858	-218.69
481.983	-395.69
482.108	-255.69
482.234	-508.69
482.359	-254.69
482.484	117.31
482.61	-310.69
482.735	-118.69
482.86	-486.69
482.985	-237.69
483.111	-183.69
483.236	-83.69
483.361	-235.69
483.486	-347.69
483.612	48.31
483.737	-487.69
483.862	-188.69
483.987	-46.69
484.113	-550.69
484.238	-46.69
484.363	-362.69
484.488	-251.69
484.614	-10.69
484.739	-196.69
484.864	90.31
484.989	430.31
485.114	-97.69
485.24	-206.69
485.365	-218.69
485.49	-557.69
485.615	-2.69
485.74	-185.69
485.865	-93.69
485.991	-98.69
486.116	-66.69
486.241	-438.69
486.366	-367.69
486.491	-38.69
486.616	-325.69
486.742	-204.69
486.867	-173.69
486.992	-394.69
487.117	-329.69
487.242	-307.69
487.367	-533.69
487.492	-210.69
487.617	-4.69
487.742	-149.69
487.868	-300.69
487.993	-27.69
488.118	-73.69
488.243	-82.69
488.368	-262.69
488.493	-565.69
488.618	-255.69
488.743	-238.69
488.868	-289.69
488.993	-189.69
489.118	5.31
489.243	-190.69
489.368	-250.69
489.493	33.31
489.618	-169.69
489.743	-371.69
489.868	-121.69
489.993	-312.69
490.118	-516.69
490.243	408.31
490.368	-260.69
490.493	-39.69
490.618	30.31
490.743	-573.69
490.868	-116.69
490.993	-159.69
491.118	-6.69
491.243	-354.69
491.368	-310.69
491.493	-6.69
491.618	-151.69
491.743	-212.69
491.868	-275.69
491.993	-177.69
492.118	-280.69
492.243	-115.69
492.368	-88.69
492.493	-275.69
492.618	127.31
492.743	-231.69
492.867	27.31
492.992	-142.69
493.117	-18.69
493.242	-267.69
493.367	-167.69
493.492	52.31
493.617	-294.69
493.742	114.31
493.867	-225.69
493.991	-509.69
494.116	-161.69
494.241	-132.69
494.366	-189.69
494.491	-61.69
494.616	56.31
494.74	-295.69
494.865	-417.69
494.99	-262.69
495.115	-196.69
495.24	-162.69
495.365	-245.69
495.489	-203.69
495.614	-108.69
495.739	-212.69
495.864	-236.69
495.989	-512.69
496.113	1.31
496.238	-117.69
496.363	-265.69
496.488	-386.69
496.612	6.31
496.737	-254.69
496.862	-212.69
496.987	-274.69
497.111	-377.69
497.236	-335.69
497.361	-295.69
497.486	110.31
497.61	14.31
497.735	-183.69
497.86	-49.69
497.984	-58.69
498.109	-540.69
498.234	-274.69
498.359	-266.69
498.483	-124.69
498.608	-157.69
498.733	-246.69
498.857	-365.69
498.982	-187.69
499.107	-487.69
499.231	-165.69
499.356	-237.69
499.481	131.31
499.605	-634.69
499.73	-386.69
499.855	56.31
499.979	-341.69
500.104	-205.69
500.228	166.31
500.353	-216.69
500.478	-447.69
500.602	-119.69
500.727	75.31
500.852	-82.69
500.976	-577.69
501.101	-236.69
501.225	118.31
501.35	-346.69
501.474	-354.69
501.599	-18.69
501.724	-219.69
501.848	-186.69
501.973	107.31
502.097	-413.69
502.222	-554.69
502.346	-20.69
502.471	-148.69
502.595	-263.69
502.72	-421.69
502.844	-354.69
502.969	-191.69
503.094	132.31
503.218	-411.69
503.343	-288.69
503.467	-307.69
503.592	-214.69
503.716	-283.69
503.841	-87.69
503.965	184.31
504.089	-213.69
504.214	-406.69
504.338	-223.69
504.463	-19.69
504.587	-114.69
504.712	-118.69
504.836	-173.69
504.961	225.31
505.085	126.31
505.21	-302.69
505.334	-276.69
505.458	241.31
505.583	-427.69
505.707	-71.69
505.832	-223.69
505.956	-112.69
506.08	-359.69
506.205	-256.69
506.329	104.31
506.454	-426.69
506.578	-135.69
506.702	-317.69
506.827	103.31
506.951	-81.69
507.076	-166.69
507.2	-396.69
507.324	-37.69
507.449	93.31
507.573	-202.69
507.697	-263.69
507.822	-162.69
507.946	-190.69
508.07	-493.69
508.195	-191.69
508.319	-221.69
508.443	-156.69
508.567	-530.69
508.692	-427.69
508.816	-350.69
508.94	-189.69
509.065	-547.69
509.189	-55.69
509.313	-21.69
509.437	-2.69
509.562	-213.69
509.686	-141.69
509.81	-203.69
509.935	-107.69
510.059	48.31
510.183	-304.69
510.307	-436.69
510.431	16.31
510.556	-182.69
510.68	-252.69
510.804	-517.69
510.928	-163.69
511.053	-431.69
511.177	-439.69
511.301	-169.69
511.425	-263.69
511.549	-151.69
511.674	-113.69
511.798	-139.69
511.922	-95.69
512.046	142.31
512.17	-227.69
512.294	-415.69
512.419	-91.69
512.543	-54.69
512.667	-209.69
512.791	-321.69
512.915	-112.69
513.039	-218.69
513.163	-86.69
513.288	122.31
513.412	-241.69
513.536	58.31
513.66	-319.69
513.784	-190.69
513.908	-135.69
514.032	-145.69
514.156	14.31
514.28	-39.69
514.404	-195.69
514.528	-219.69
514.653	-42.69
514.777	1.31
514.901	-63.69
515.025	71.31
515.149	-209.69
515.273	-77.69
515.397	-207.69
515.521	-207.69
515.645	-198.69
515.769	-345.69
515.893	-273.69
516.017	-263.69
516.141	-481.69
516.265	-245.69
516.389	-283.69
516.513	-170.69
516.637	-299.69
516.761	-600.69
516.885	-319.69
517.009	-184.69
517.133	-86.69
517.257	-272.69
517.381	13.31
517.505	-24.69
517.629	72.31
517.753	-202.69
517.877	-464.69
518.001	-240.69
518.125	-215.69
518.248	-81.69
518.372	-143.69
518.496	-508.69
518.62	-77.69
518.744	-185.69
518.868	-133.69
518.992	-142.69
519.116	-342.69
519.24	430.31
519.364	63.31
519.488	-173.69
519.611	-475.69
519.735	-181.69
519.859	-226.69
519.983	-9.69
520.107	-254.69
520.231	10.31
520.355	-160.69
520.478	-363.69
520.602	-367.69
520.726	118.31
520.85	-201.69
520.974	23.31
521.098	-278.69
521.221	-353.69
521.345	49.31
521.469	-304.69
521.593	-163.69
521.717	16.31
521.84	-142.69
521.964	-317.69
522.088	-251.69
522.212	-196.69
522.335	-479.69
522.459	-328.69
522.583	210.31
522.707	-371.69
522.83	-550.69
522.954	-289.69
523.078	-287.69
523.202	-33.69
523.325	-256.69
523.449	-149.69
523.573	-175.69
523.697	-304.69
523.82	-171.69
523.944	-249.69
524.068	-176.69
524.191	-224.69
524.315	-536.69
524.439	-161.69
524.562	-15.69
524.686	-260.69
524.81	-343.69
524.933	-264.69
525.057	-243.69
525.181	-103.69
525.304	-412.69
525.428	112.31
525.552	-406.69
525.675	-138.69
525.799	-302.69
525.923	-108.69
526.046	-61.69
526.17	-489.69
526.293	-437.69
526.417	-113.69
526.541	23.31
526.664	-246.69
526.788	-234.69
526.911	-44.69
527.035	-374.69
527.159	-245.69
527.282	-260.69
527.406	-305.69
527.529	-26.69
527.653	-377.69
527.776	-108.69
527.9	-267.69
528.024	-318.69
528.147	-249.69
528.271	24.31
528.394	-0.69
528.518	47.31
528.641	-394.69
528.765	-105.69
528.888	-144.69
529.012	-93.69
529.135	-239.69
529.259	121.31
529.382	-203.69
529.506	-325.69
529.629	-90.69
529.753	-445.69
529.876	96.31
530	49.31
530.123	-123.69
530.247	-377.69
530.37	-281.69
530.493	-129.69
530.617	-340.69
530.74	30.31
530.864	-47.69
530.987	-464.69
531.111	-84.69
531.234	-364.69
531.357	8.31
531.481	-6.69
531.604	58.31
531.728	-505.69
531.851	-104.69
531.974	-99.69
532.098	-229.69
532.221	-340.69
532.345	-203.69
532.468	-381.69
532.591	167.31
532.715	-204.69
532.838	-206.69
532.961	-222.69
533.085	-307.69
533.208	-122.69
533.331	-535.69
533.455	-5.69
533.578	-216.69
533.701	-97.69
533.825	27.31
533.948	-276.69
534.071	-214.69
534.195	-46.69
534.318	-400.69
534.441	-273.69
534.564	-57.69
534.688	-306.69
534.811	0.31
534.934	-183.69
535.058	-107.69
535.181	59.31
535.304	-62.69
535.427	-298.69
535.551	-472.69
535.674	-196.69
535.797	-26.69
535.92	-29.69
536.043	-422.69
536.167	-473.69
536.29	-85.69
536.413	-117.69
536.536	-340.69
536.66	-262.69
536.783	-88.69
536.906	-146.69
537.029	-275.69
537.152	-278.69
537.275	-173.69
537.399	149.31
537.522	-556.69
537.645	-195.69
537.768	-271.69
537.891	-124.69
538.014	-195.69
538.138	-307.69
538.261	-218.69
538.384	-165.69
538.507	-369.69
538.63	-260.69
538.753	112.31
538.876	-115.69
538.999	-345.69
539.123	-51.69
539.246	192.31
539.369	269.31
539.492	-301.69
539.615	-474.69
539.738	177.31
539.861	-252.69
539.984	-164.69
540.107	-113.69
540.23	-296.69
540.353	-321.69
540.476	-583.69
540.599	-101.69
540.722	-380.69
540.846	-113.69
540.969	-487.69
541.092	-123.69
541.215	-410.69
541.338	-119.69
541.461	-365.69
541.584	-192.69
541.707	-185.69
541.83	-299.69
541.953	-124.69
542.076	-96.69
542.199	-150.69
542.322	90.31
542.445	115.31
542.567	-240.69
542.69	-112.69
542.813	-222.69
542.936	-83.69
543.059	-151.69
543.182	225.31
543.305	56.31
543.428	-147.69
543.551	-205.69
543.674	77.31
543.797	-43.69
543.92	-203.69
544.043	287.31
544.166	-340.69
544.288	-207.69
544.411	-69.69
544.534	-419.69
544.657	-131.69
544.78	-229.69
544.903	-62.69
545.026	-160.69
545.149	-376.69
545.271	-385.69
545.394	-272.69
545.517	-429.69
545.64	403.31
545.763	-219.69
545.886	-301.69
546.008	-112.69
546.131	12.31
546.254	-179.69
546.377	-461.69
546.5	-35.69
546.623	-36.69
546.745	-372.69
546.868	-186.69
546.991	58.31
547.114	-159.69
547.236	-178.69
547.359	-306.69
547.482	-107.69
547.605	-292.69
547.728	-231.69
547.85	-350.69
547.973	-328.69
548.096	-179.69
548.219	-86.69
548.341	-224.69
548.464	-519.69
548.587	-174.69
548.709	-209.69
548.832	-141.69
548.955	257.31
549.078	29.31
549.2	-276.69
549.323	-206.69
549.446	150.31
549.568	-138.69
549.691	-56.69
549.814	-37.69
549.936	-278.69
550.059	-200.69
550.182	-366.69
550.304	-465.69
550.427	-163.69
550.55	-269.69
550.672	-311.69
550.795	269.31
550.917	-305.69
551.04	-202.69
551.163	-91.69
551.285	56.31
551.408	30.31
551.531	307.31
551.653	-411.69
551.776	-85.69
551.898	-78.69
552.021	-124.69
552.143	-197.69
552.266	-187.69
552.389	-172.69
552.511	-411.69
552.634	-400.69
552.756	-340.69
552.879	249.31
553.001	19.31
553.124	-451.69
553.246	-284.69
553.369	49.31
553.492	-182.69
553.614	40.31
553.737	-625.69
553.859	-29.69
553.982	6.31
554.104	-129.69
554.227	-319.69
554.349	-203.69
554.472	-173.69
554.594	-584.69
554.716	9.31
554.839	-31.69
554.961	-109.69
555.084	-349.69
555.206	-112.69
555.329	-534.69
555.451	-451.69
555.574	-94.69
555.696	-327.69
555.819	-173.69
555.941	-183.69
556.063	-51.69
556.186	-186.69
556.308	-83.69
556.431	219.31
556.553	-33.69
556.675	-274.69
556.798	-229.69
556.92	-18.69
557.043	-267.69
557.165	-372.69
557.287	42.31
557.41	-176.69
557.532	-147.69
557.654	-254.69
557.777	27.31
557.899	-148.69
558.021	-231.69
558.144	73.31
558.266	59.31
558.388	270.31
558.511	-202.69
558.633	-153.69
558.755	-268.69
558.878	-297.69
559	-34.69
559.122	-525.69
559.244	-314.69
559.367	-192.69
559.489	38.31
559.611	132.31
559.734	-184.69
559.856	-126.69
559.978	-148.69
560.1	-170.69
560.223	-167.69
560.345	96.31
560.467	-389.69
560.589	-212.69
560.712	-226.69
560.834	203.31
560.956	-362.69
561.078	-203.69
561.2	-106.69
561.323	81.31
561.445	-411.69
561.567	-254.69
561.689	-422.69
561.811	-35.69
561.934	-191.69
562.056	-197.69
562.178	-62.69
562.3	-221.69
562.422	-53.69
562.544	-150.69
562.666	14.31
562.789	-84.69
562.911	-128.69
563.033	-16.69
563.155	-3.69
563.277	-286.69
563.399	-485.69
563.521	-209.69
563.643	-373.69
563.766	-160.69
563.888	9.31
564.01	-108.69
564.132	-421.69
564.254	-447.69
564.376	65.31
564.498	-127.69
564.62	124.31
564.742	-119.69
564.864	-440.69
564.986	-125.69
565.108	234.31
565.23	-294.69
565.352	5.31
565.474	-84.69
565.597	154.31
565.719	151.31
565.841	-406.69
565.963	-77.69
566.085	-105.69
566.207	-185.69
566.329	34.31
566.451	32.31
566.573	-239.69
566.695	-240.69
566.817	191.31
566.938	-372.69
567.06	-182.69
567.182	-116.69
567.304	-195.69
567.426	-362.69
567.548	44.31
567.67	-101.69
567.792	-169.69
567.914	-268.69
568.036	-179.69
568.158	-108.69
568.28	-314.69
568.402	-41.69
568.524	-186.69
568.646	-349.69
568.767	-248.69
568.889	20.31
569.011	-190.69
569.133	-252.69
569.255	-471.69
569.377	-363.69
569.499	-123.69
569.621	-294.69
569.742	215.31
569.864	-23.69
569.986	297.31
570.108	-1.69
570.23	-351.69
570.352	83.31
570.473	-133.69
570.595	-162.69
570.717	-374.69
570.839	-180.69
570.961	21.31
571.082	-187.69
571.204	-316.69
571.326	-293.69
571.448	23.31
571.57	35.31
571.691	-129.69
571.813	-116.69
571.935	48.31
572.057	-124.69
572.178	-353.69
572.3	124.31
572.422	121.31
572.544	185.31
572.665	-251.69
572.787	-314.69
572.909	120.31
573.031	-41.69
573.152	-388.69
573.274	-53.69
573.396	4.31
573.517	-20.69
573.639	-487.69
573.761	-288.69
573.882	-127.69
574.004	-12.69
574.126	-312.69
574.247	-8.69
574.369	-10.69
574.491	-145.69
574.612	-314.69
574.734	-152.69
574.856	-124.69
574.977	-35.69
575.099	-145.69
575.221	-129.69
575.342	-160.69
575.464	-107.69
575.585	-70.69
575.707	-321.69
575.829	114.31
575.95	71.31
576.072	-222.69
576.193	-315.69
576.315	-193.69
576.437	-185.69
576.558	-175.69
576.68	-167.69
576.801	249.31
576.923	-360.69
577.044	58.31
577.166	-421.69
577.287	-125.69
577.409	-215.69
577.531	-173.69
577.652	-31.69
577.774	-485.69
577.895	-122.69
578.017	-277.69
578.138	-260.69
578.26	-184.69
578.381	-38.69
578.503	-261.69
578.624	-253.69
578.746	-500.69
578.867	-204.69
578.988	-107.69
579.11	111.31
579.231	-75.69
579.353	-256.69
579.474	-173.69
579.596	-217.69
579.717	49.31
579.839	-134.69
579.96	-505.69
580.081	-67.69
580.203	-204.69
580.324	-106.69
580.446	-47.69
580.567	-158.69
580.688	191.31
580.81	-379.69
580.931	-217.69
581.053	-386.69
581.174	-124.69
581.295	-307.69
581.417	-60.69
581.538	-5.69
581.659	-55.69
581.781	-142.69
581.902	-245.69
582.024	-329.69
582.145	-360.69
582.266	-348.69
582.388	-159.69
582.509	-338.69
582.63	-135.69
582.751	-198.69
582.873	-193.69
582.994	-205.69
583.115	-176.69
583.237	-92.69
583.358	-271.69
583.479	-496.69
583.6	32.31
583.722	-187.69
583.843	-310.69
583.964	-40.69
584.086	-226.69
584.207	-55.69
584.328	-366.69
584.449	-73.69
584.57	-104.69
584.692	-138.69
584.813	849.31
584.934	-126.69
585.055	-354.69
585.177	-1.69
585.298	-123.69
585.419	-375.69
585.54	164.31
585.661	-45.69
585.783	-110.69
585.904	-280.69
586.025	84.31
586.146	-333.69
586.267	-239.69
586.388	-165.69
586.51	313.31
586.631	-400.69
586.752	-357.69
586.873	-225.69
586.994	-440.69
587.115	-402.69
587.236	-268.69
587.357	-456.69
587.479	-304.69
587.6	46.31
587.721	-242.69
587.842	-310.69
587.963	193.31
588.084	98.31
588.205	-364.69
588.326	-185.69
588.447	-140.69
588.568	-177.69
588.689	-120.69
588.81	-63.69
588.931	-195.69
589.052	-278.69
589.174	-298.69
589.295	-80.69
589.416	-94.69
589.537	77.31
589.658	-261.69
589.779	-469.69
589.9	72.31
590.021	-249.69
590.142	-245.69
590.263	-409.69
590.384	-133.69
590.505	197.31
590.626	-336.69
590.747	-138.69
590.867	-25.69
590.988	-50.69
591.109	-190.69
591.23	66.31
591.351	-3.69
591.472	-142.69
591.593	-237.69
591.714	-82.69
591.835	-219.69
591.956	-233.69
592.077	-480.69
592.198	-158.69
592.319	-97.69
592.44	5.31
592.56	-255.69
592.681	-416.69
592.802	-83.69
592.923	-159.69
593.044	-296.69
593.165	-349.69
593.286	-50.69
593.407	-324.69
593.527	27.31
593.648	-290.69
593.769	-48.69
593.89	81.31
594.011	-158.69
594.132	-250.69
594.252	-90.69
594.373	-357.69
594.494	-454.69
594.615	-196.69
594.736	-218.69
594.856	73.31
594.977	-330.69
595.098	-120.69
595.219	-371.69
595.34	-96.69
595.46	-330.69
595.581	183.31
595.702	-139.69
595.823	-357.69
595.943	-94.69
596.064	-164.69
596.185	105.31
596.306	-523.69
596.426	-294.69
596.547	-328.69
596.668	-44.69
596.788	-75.69
596.909	-149.69
597.03	-71.69
597.151	-124.69
597.271	-263.69
597.392	-193.69
597.513	-90.69
597.633	-3.69
597.754	-81.69
597.875	-177.69
597.995	85.31
598.116	-88.69
598.237	-188.69
598.357	-291.69
598.478	-299.69
598.599	215.31
598.719	-146.69
598.84	-357.69
598.96	-272.69
599.081	-126.69
599.202	-176.69
599.322	-319.69
599.443	-352.69
599.563	-41.69
599.684	48.31
599.805	-253.69
599.925	-389.69
600.046	214.31
600.166	-184.69
600.287	-64.69
600.407	-141.69
600.528	77.31
600.649	-30.69
600.769	-179.69
600.89	-371.69
601.01	-4.69
601.131	-249.69
601.251	112.31
601.372	-140.69
601.492	-230.69
601.613	-279.69
601.733	-246.69
601.854	211.31
601.974	315.31
602.095	153.31
602.215	-376.69
602.336	-353.69
602.456	234.31
602.577	-266.69
602.697	704.31
602.817	-19.69
602.938	-82.69
603.058	-23.69
603.179	-373.69
603.299	-312.69
603.42	-463.69
603.54	-68.69
603.66	-388.69
603.781	-110.69
603.901	-230.69
604.022	130.31
604.142	-138.69
604.262	-147.69
604.383	-251.69
604.503	145.31
604.624	-287.69
604.744	-121.69
604.864	-29.69
604.985	-220.69
605.105	-105.69
605.225	-169.69
605.346	-129.69
605.466	35.31
605.586	208.31
605.707	299.31
605.827	-417.69
605.947	-183.69
606.068	-223.69
606.188	-195.69
606.308	-220.69
606.429	64.31
606.549	-236.69
606.669	-404.69
606.789	-319.69
606.91	-72.69
607.03	-313.69
607.15	-248.69
607.27	-102.69
607.391	8.31
607.511	-262.69
607.631	-307.69
607.751	159.31
607.872	-3.69
607.992	-343.69
608.112	28.31
608.232	-243.69
608.353	-366.69
608.473	-251.69
608.593	116.31
608.713	259.31
608.833	-114.69
608.954	-274.69
609.074	-228.69
609.194	-382.69
609.314	223.31
609.434	-30.69
609.554	-148.69
609.675	-37.69
609.795	-250.69
609.915	-296.69
610.035	293.31
610.155	-146.69
610.275	-229.69
610.395	6.31
610.516	-370.69
610.636	-102.69
610.756	-64.69
610.876	-15.69
610.996	-283.69
611.116	172.31
611.236	-414.69
611.356	-250.69
611.476	-144.69
611.596	-92.69
611.716	101.31
611.836	-302.69
611.957	-350.69
612.077	-133.69
612.197	-58.69
612.317	-287.69
612.437	96.31
612.557	43.31
612.677	-177.69
612.797	-109.69
612.917	-412.69
613.037	-33.69
613.157	-101.69
613.277	-126.69
613.397	137.31
613.517	131.31
613.637	-264.69
613.757	-147.69
613.877	-273.69
613.997	4.31
614.117	-273.69
614.237	-201.69
614.356	-94.69
614.476	64.31
614.596	67.31
614.716	-171.69
614.836	-170.69
614.956	-25.69
615.076	-89.69
615.196	-331.69
615.316	-118.69
615.436	-33.69
615.556	153.31
615.676	191.31
615.795	-82.69
615.915	-102.69
616.035	-217.69
616.155	-154.69
616.275	-290.69
616.395	-198.69
616.515	19.31
616.635	-508.69
616.754	-508.69
616.874	-15.69
616.994	-100.69
617.114	237.31
617.234	78.31
617.354	22.31
617.473	361.31
617.593	-217.69
617.713	-125.69
617.833	-28.69
617.953	-89.69
618.072	-595.69
618.192	-270.69
618.312	112.31
618.432	83.31
618.551	-301.69
618.671	-281.69
618.791	-4.69
618.911	-82.69
619.03	-199.69
619.15	-106.69
619.27	-164.69
619.39	-226.69
619.509	-164.69
619.629	-207.69
619.749	-307.69
619.868	-100.69
619.988	-379.69
620.108	-207.69
620.228	715.31
620.347	-79.69
620.467	-297.69
620.587	-294.69
620.706	87.31
620.826	-283.69
620.946	-297.69
621.065	-21.69
621.185	320.31
621.305	-207.69
621.424	-206.69
621.544	-498.69
621.663	-39.69
621.783	-217.69
621.903	220.31
622.022	-295.69
622.142	-120.69
622.261	184.31
622.381	-114.69
622.501	-54.69
622.62	-172.69
622.74	-84.69
622.859	-179.69
622.979	71.31
623.099	-171.69
623.218	-52.69
623.338	150.31
623.457	-51.69
623.577	-220.69
623.696	-70.69
623.816	-473.69
623.935	-298.69
624.055	-273.69
624.174	-110.69
624.294	-148.69
624.413	-406.69
624.533	-65.69
624.652	112.31
624.772	-284.69
624.891	-411.69
625.011	40.31
625.13	-188.69
625.25	-402.69
625.369	-254.69
625.489	-172.69
625.608	-268.69
625.728	-165.69
625.847	-144.69
625.966	-342.69
626.086	-259.69
626.205	-409.69
626.325	-122.69
626.444	-87.69
626.564	154.31
626.683	6.31
626.802	16.31
626.922	143.31
627.041	-39.69
627.161	-143.69
627.28	12.31
627.399	43.31
627.519	-92.69
627.638	-414.69
627.757	-275.69
627.877	-167.69
627.996	-160.69
628.115	-37.69
628.235	-27.69
628.354	-392.69
628.473	-76.69
628.593	110.31
628.712	-127.69
628.831	-86.69
628.951	-389.69
629.07	107.31
629.189	-93.69
629.309	-141.69
629.428	219.31
629.547	-357.69
629.666	-39.69
629.786	-117.69
629.905	-345.69
630.024	-9.69
630.143	-74.69
630.263	-133.69
630.382	239.31
630.501	-183.69
630.62	-247.69
630.74	-355.69
630.859	88.31
630.978	-172.69
631.097	-354.69
631.216	-353.69
631.336	183.31
631.455	-259.69
631.574	-230.69
631.693	-44.69
631.812	-171.69
631.932	-476.69
632.051	98.31
632.17	283.31
632.289	53.31
632.408	-226.69
632.527	-160.69
632.646	-98.69
632.766	-319.69
632.885	202.31
633.004	-368.69
633.123	-126.69
633.242	-297.69
633.361	637.31
633.48	-282.69
633.599	-269.69
633.718	71.31
633.838	-82.69
633.957	-440.69
634.076	-64.69
634.195	-167.69
634.314	-49.69
634.433	-15.69
634.552	-237.69
634.671	-83.69
634.79	204.31
634.909	50.31
635.028	-55.69
635.147	-9.69
635.266	-290.69
635.385	-90.69
635.504	-357.69
635.623	-31.69
635.742	-407.69
635.861	-369.69
635.98	-84.69
636.099	-245.69
636.218	-141.69
636.337	-117.69
636.456	305.31
636.575	36.31
636.694	-130.69
636.813	-359.69
636.932	-357.69
637.051	-93.69
637.17	-431.69
637.289	-116.69
637.408	-371.69
637.526	-100.69
637.645	-524.69
637.764	-333.69
637.883	-196.69
638.002	42.31
638.121	371.31
638.24	-321.69
638.359	64.31
638.478	-181.69
638.597	-312.69
638.715	396.31
638.834	-108.69
638.953	45.31
639.072	-358.69
639.191	-417.69
639.31	40.31
639.428	-94.69
639.547	-107.69
639.666	-3.69
639.785	-12.69
639.904	-79.69
640.023	-408.69
640.141	-227.69
640.26	-170.69
640.379	14.31
640.498	-443.69
640.616	-121.69
640.735	-108.69
640.854	73.31
640.973	-360.69
641.092	-14.69
641.21	-41.69
641.329	-183.69
641.448	-10.69
641.567	222.31
641.685	-137.69
641.804	-174.69
641.923	-156.69
642.041	-265.69
642.16	-154.69
642.279	112.31
642.398	-233.69
642.516	-274.69
642.635	159.31
642.754	-180.69
642.872	25.31
642.991	56.31
643.11	-223.69
643.228	-381.69
643.347	-373.69
643.466	-365.69
643.584	66.31
643.703	256.31
643.821	-132.69
643.94	-86.69
644.059	-51.69
644.177	69.31
644.296	-332.69
644.415	-218.69
644.533	-94.69
644.652	53.31
644.77	-381.69
644.889	-340.69
645.008	33.31
645.126	-248.69
645.245	-15.69
645.363	63.31
645.482	-45.69
645.6	-131.69
645.719	-194.69
645.837	-241.69
645.956	-54.69
646.074	-390.69
646.193	-290.69
646.312	-30.69
646.43	153.31
646.549	228.31
646.667	-523.69
646.786	-320.69
646.904	64.31
647.023	-25.69
647.141	-341.69
647.26	-0.69
647.378	415.31
647.496	-146.69
647.615	-65.69
647.733	-123.69
647.852	224.31
647.97	-259.69
648.089	18.31
648.207	-11.69
648.326	112.31
648.444	-138.69
648.562	-182.69
648.681	-60.69
648.799	-165.69
648.918	-72.69
649.036	-139.69
649.154	-246.69
649.273	94.31
649.391	-175.69
649.51	-298.69
649.628	-352.69
649.746	199.31
649.865	-238.69
649.983	-310.69
650.101	-128.69
650.22	-107.69
650.338	-276.69
650.456	-212.69
650.575	-232.69
650.693	-354.69
650.811	-5.69
650.93	-369.69
651.048	1089.31
651.166	334.31
651.285	-133.69
651.403	-31.69
651.521	-97.69
651.639	-97.69
651.758	76.31
651.876	180.31
651.994	-313.69
652.112	118.31
652.231	-99.69
652.349	-246.69
652.467	-569.69
652.585	-110.69
652.704	9.31
652.822	-426.69
652.94	-371.69
653.058	-34.69
653.176	-188.69
653.295	-160.69
653.413	-56.69
653.531	-210.69
653.649	-122.69
653.767	-303.69
653.886	-345.69
654.004	-260.69
654.122	165.31
654.24	-401.69
654.358	-313.69
654.476	-142.69
654.594	223.31
654.713	-213.69
654.831	-462.69
654.949	-156.69
655.067	0.31
655.185	-345.69
655.303	-239.69
655.421	-185.69
655.539	130.31
655.658	-157.69
655.776	-225.69
655.894	26.31
656.012	196.31
656.13	-423.69
656.248	-216.69
656.366	-329.69
656.484	-153.69
656.602	-318.69
656.72	-305.69
656.838	-32.69
656.956	-151.69
657.074	-59.69
657.192	-78.69
657.31	-301.69
657.428	-160.69
657.546	-116.69
657.664	-131.69
657.782	-122.69
657.9	130.31
658.018	-223.69
658.136	-190.69
658.254	74.31
658.372	136.31
658.49	-332.69
658.608	-299.69
658.726	-4.69
658.844	21.31
658.962	-232.69
659.08	-402.69
659.198	-41.69
659.316	-92.69
