Data from HR4D30811__3__00003.txt Node

Date: Fri Jan 26 16:31:50 MST 2024
User: Brock
Spectrometer: HR4D3081
Trigger mode: 4
Integration Time (sec): 8.000000E0
Scans to average: 1
Electric dark correction enabled: true
Nonlinearity correction enabled: false
Boxcar width: 0
XAxis mode: Wavelengths
Number of Pixels in Spectrum: 3648
>>>>>Begin Spectral Data<<<<<
197.25	-1204.31
197.385	-1204.31
197.519	-1204.31
197.653	-1231.31
197.787	174.69
197.922	-164.31
198.056	69.69
198.19	10.69
198.324	33.69
198.459	-202.31
198.593	434.69
198.727	-24.31
198.861	-98.31
198.996	210.69
199.13	-256.31
199.264	-214.31
199.398	-49.31
199.533	249.69
199.667	107.69
199.801	-80.31
199.935	-251.31
200.07	-24.31
200.204	-3.31
200.338	-182.31
200.472	-178.31
200.606	-324.31
200.741	-165.31
200.875	-136.31
201.009	-95.31
201.143	-212.31
201.277	102.69
201.412	91.69
201.546	227.69
201.68	177.69
201.814	-175.31
201.948	68.69
202.082	-86.31
202.217	-305.31
202.351	-115.31
202.485	-36.31
202.619	-279.31
202.753	-325.31
202.887	286.69
203.021	78.69
203.156	226.69
203.29	73.69
203.424	-50.31
203.558	-186.31
203.692	-89.31
203.826	-316.31
203.96	-92.31
204.094	174.69
204.229	-165.31
204.363	-227.31
204.497	-324.31
204.631	-258.31
204.765	-205.31
204.899	-139.31
205.033	-142.31
205.167	-222.31
205.301	4.69
205.435	-276.31
205.569	-66.31
205.704	-60.31
205.838	-296.31
205.972	-142.31
206.106	519.69
206.24	-181.31
206.374	-219.31
206.508	27.69
206.642	19.69
206.776	-112.31
206.91	150.69
207.044	-15.31
207.178	126.69
207.312	-20.31
207.446	-147.31
207.58	-156.31
207.714	-262.31
207.848	141.69
207.982	-371.31
208.116	22.69
208.25	-236.31
208.384	-150.31
208.518	-156.31
208.652	-265.31
208.786	-275.31
208.92	248.69
209.054	-57.31
209.188	-290.31
209.322	-114.31
209.456	-110.31
209.59	-273.31
209.724	-82.31
209.858	-33.31
209.992	-91.31
210.126	-199.31
210.26	-167.31
210.394	-82.31
210.528	-22.31
210.662	-201.31
210.796	-137.31
210.929	140.69
211.063	-45.31
211.197	-74.31
211.331	1.69
211.465	-179.31
211.599	54.69
211.733	101.69
211.867	-218.31
212.001	-191.31
212.135	-60.31
212.269	-214.31
212.402	-188.31
212.536	128.69
212.67	-122.31
212.804	-215.31
212.938	65.69
213.072	-202.31
213.206	-85.31
213.34	-167.31
213.473	-143.31
213.607	101.69
213.741	-291.31
213.875	-287.31
214.009	-198.31
214.143	-179.31
214.277	-108.31
214.41	-222.31
214.544	245.69
214.678	120.69
214.812	264.69
214.946	-273.31
215.08	-168.31
215.213	-227.31
215.347	-89.31
215.481	-77.31
215.615	-311.31
215.749	22.69
215.882	-241.31
216.016	-309.31
216.15	57.69
216.284	162.69
216.418	6.69
216.551	93.69
216.685	9.69
216.819	-270.31
216.953	-152.31
217.086	295.69
217.22	-145.31
217.354	-29.31
217.488	119.69
217.621	88.69
217.755	-45.31
217.889	-126.31
218.023	-52.31
218.156	80.69
218.29	70.69
218.424	177.69
218.558	-242.31
218.691	-342.31
218.825	-123.31
218.959	401.69
219.092	-123.31
219.226	-334.31
219.36	-279.31
219.494	-23.31
219.627	-170.31
219.761	-215.31
219.895	-85.31
220.028	-299.31
220.162	517.69
220.296	165.69
220.429	-17.31
220.563	-56.31
220.697	-26.31
220.83	-234.31
220.964	-141.31
221.098	-279.31
221.231	-251.31
221.365	47.69
221.499	-219.31
221.632	-248.31
221.766	23.69
221.9	-83.31
222.033	62.69
222.167	84.69
222.3	-196.31
222.434	-57.31
222.568	243.69
222.701	-151.31
222.835	-139.31
222.968	-240.31
223.102	-240.31
223.236	-252.31
223.369	39.69
223.503	7.69
223.636	-254.31
223.77	-142.31
223.904	3.69
224.037	-174.31
224.171	87.69
224.304	11.69
224.438	-187.31
224.571	-102.31
224.705	158.69
224.839	-45.31
224.972	-331.31
225.106	-25.31
225.239	-87.31
225.373	64.69
225.506	-44.31
225.64	64.69
225.773	-136.31
225.907	-189.31
226.04	-315.31
226.174	-148.31
226.307	-50.31
226.441	-138.31
226.575	-16.31
226.708	127.69
226.842	-85.31
226.975	-172.31
227.109	-177.31
227.242	26.69
227.375	75.69
227.509	-72.31
227.642	-164.31
227.776	56.69
227.909	41.69
228.043	-199.31
228.176	198.69
228.31	-253.31
228.443	288.69
228.577	-52.31
228.71	-144.31
228.844	-9.31
228.977	-281.31
229.111	-140.31
229.244	50.69
229.377	-289.31
229.511	-44.31
229.644	-175.31
229.778	-149.31
229.911	-210.31
230.044	-125.31
230.178	-55.31
230.311	-233.31
230.445	33.69
230.578	-196.31
230.711	-72.31
230.845	375.69
230.978	47.69
231.112	-233.31
231.245	-259.31
231.378	-232.31
231.512	42.69
231.645	-376.31
231.779	-324.31
231.912	-49.31
232.045	61.69
232.179	-194.31
232.312	-151.31
232.445	63.69
232.579	252.69
232.712	117.69
232.845	-200.31
232.979	-360.31
233.112	74.69
233.245	-108.31
233.379	-297.31
233.512	-25.31
233.645	-226.31
233.779	-271.31
233.912	-15.31
234.045	-195.31
234.179	24.69
234.312	-145.31
234.445	26.69
234.578	-39.31
234.712	22.69
234.845	59.69
234.978	-167.31
235.112	-66.31
235.245	112.69
235.378	-193.31
235.511	7.69
235.645	30.69
235.778	-14.31
235.911	-160.31
236.044	-272.31
236.178	303.69
236.311	-217.31
236.444	-246.31
236.577	-247.31
236.711	-50.31
236.844	-407.31
236.977	-161.31
237.11	-189.31
237.243	42.69
237.377	-266.31
237.51	-241.31
237.643	928.69
237.776	-174.31
237.909	-149.31
238.043	-18.31
238.176	-224.31
238.309	-82.31
238.442	-296.31
238.575	-107.31
238.709	389.69
238.842	26.69
238.975	-2.31
239.108	160.69
239.241	-284.31
239.374	-233.31
239.508	-178.31
239.641	184.69
239.774	357.69
239.907	-55.31
240.04	-256.31
240.173	48.69
240.306	215.69
240.44	-158.31
240.573	146.69
240.706	-147.31
240.839	25.69
240.972	-97.31
241.105	-62.31
241.238	49.69
241.371	-45.31
241.504	-42.31
241.638	-111.31
241.771	-36.31
241.904	-133.31
242.037	43.69
242.17	-189.31
242.303	-310.31
242.436	-87.31
242.569	-118.31
242.702	-196.31
242.835	-153.31
242.968	-15.31
243.101	-119.31
243.234	-249.31
243.367	-271.31
243.5	-113.31
243.634	-181.31
243.767	-289.31
243.9	-243.31
244.033	-249.31
244.166	66.69
244.299	-318.31
244.432	-244.31
244.565	10.69
244.698	-343.31
244.831	-200.31
244.964	-269.31
245.097	-187.31
245.23	-11.31
245.363	174.69
245.496	-259.31
245.629	-176.31
245.762	449.69
245.895	-231.31
246.028	-215.31
246.161	415.69
246.294	40.69
246.427	-220.31
246.559	78.69
246.692	-47.31
246.825	-134.31
246.958	-213.31
247.091	-279.31
247.224	-327.31
247.357	-200.31
247.49	127.69
247.623	-201.31
247.756	-240.31
247.889	298.69
248.022	-107.31
248.155	-283.31
248.288	-98.31
248.421	-235.31
248.553	96.69
248.686	-223.31
248.819	75.69
248.952	-244.31
249.085	173.69
249.218	-53.31
249.351	-69.31
249.484	155.69
249.617	-66.31
249.749	-229.31
249.882	-236.31
250.015	-255.31
250.148	-183.31
250.281	-253.31
250.414	-179.31
250.547	-163.31
250.679	178.69
250.812	-88.31
250.945	13.69
251.078	-244.31
251.211	-159.31
251.344	-283.31
251.476	-184.31
251.609	-3.31
251.742	-263.31
251.875	-79.31
252.008	-180.31
252.14	-315.31
252.273	-121.31
252.406	159.69
252.539	-6.31
252.672	-81.31
252.804	142.69
252.937	-267.31
253.07	-25.31
253.203	-132.31
253.335	56.69
253.468	-373.31
253.601	-124.31
253.734	-66.31
253.866	-178.31
253.999	410.69
254.132	-16.31
254.265	-158.31
254.397	-178.31
254.53	-126.31
254.663	26.69
254.796	-193.31
254.928	-288.31
255.061	-235.31
255.194	-47.31
255.327	-291.31
255.459	-13.31
255.592	-282.31
255.725	206.69
255.857	-195.31
255.99	-24.31
256.123	-216.31
256.255	-268.31
256.388	-72.31
256.521	-259.31
256.653	-299.31
256.786	-242.31
256.919	-165.31
257.051	-256.31
257.184	-56.31
257.317	-223.31
257.449	-236.31
257.582	-115.31
257.715	-210.31
257.847	-250.31
257.98	-105.31
258.113	-197.31
258.245	-124.31
258.378	-365.31
258.51	-256.31
258.643	-256.31
258.776	22.69
258.908	-304.31
259.041	-46.31
259.174	-182.31
259.306	-170.31
259.439	-285.31
259.571	-193.31
259.704	-106.31
259.837	157.69
259.969	-222.31
260.102	-248.31
260.234	251.69
260.367	65.69
260.499	-234.31
260.632	-126.31
260.765	-198.31
260.897	-217.31
261.03	-227.31
261.162	-65.31
261.295	-53.31
261.427	108.69
261.56	-74.31
261.692	-270.31
261.825	-43.31
261.957	75.69
262.09	103.69
262.222	10.69
262.355	-246.31
262.487	-151.31
262.62	-267.31
262.752	-90.31
262.885	-125.31
263.017	-0.31
263.15	-214.31
263.282	-39.31
263.415	-233.31
263.547	-50.31
263.68	220.69
263.812	-314.31
263.945	-93.31
264.077	-255.31
264.21	163.69
264.342	-284.31
264.475	-241.31
264.607	180.69
264.74	-389.31
264.872	-90.31
265.004	127.69
265.137	64.69
265.269	315.69
265.402	-276.31
265.534	-176.31
265.667	-170.31
265.799	109.69
265.931	-92.31
266.064	22.69
266.196	-136.31
266.329	-165.31
266.461	-197.31
266.593	32.69
266.726	-321.31
266.858	-163.31
266.99	-82.31
267.123	-175.31
267.255	-46.31
267.388	-162.31
267.52	-255.31
267.652	-209.31
267.785	110.69
267.917	-22.31
268.049	-130.31
268.182	393.69
268.314	48.69
268.446	-352.31
268.579	-228.31
268.711	165.69
268.843	-227.31
268.976	-81.31
269.108	405.69
269.24	163.69
269.373	-34.31
269.505	-153.31
269.637	-160.31
269.77	-209.31
269.902	142.69
270.034	-304.31
270.167	30.69
270.299	-7.31
270.431	1.69
270.563	-196.31
270.696	-2.31
270.828	-107.31
270.96	-85.31
271.092	-12.31
271.225	-246.31
271.357	-82.31
271.489	-178.31
271.621	-257.31
271.754	547.69
271.886	-212.31
272.018	-175.31
272.15	266.69
272.283	-297.31
272.415	-164.31
272.547	71.69
272.679	94.69
272.811	-96.31
272.944	-127.31
273.076	-376.31
273.208	-21.31
273.34	-100.31
273.473	-98.31
273.605	73.69
273.737	-278.31
273.869	-15.31
274.001	-412.31
274.133	-17.31
274.266	-227.31
274.398	1415.69
274.53	53.69
274.662	111.69
274.794	-9.31
274.926	84.69
275.059	-184.31
275.191	14.69
275.323	-244.31
275.455	100.69
275.587	-243.31
275.719	-169.31
275.851	-107.31
275.983	31.69
276.116	-34.31
276.248	110.69
276.38	-259.31
276.512	-17.31
276.644	-126.31
276.776	-234.31
276.908	-46.31
277.04	-106.31
277.172	33.69
277.304	-180.31
277.437	-0.31
277.569	-194.31
277.701	-238.31
277.833	-108.31
277.965	-175.31
278.097	38.69
278.229	-184.31
278.361	-157.31
278.493	104.69
278.625	198.69
278.757	24.69
278.889	-262.31
279.021	-153.31
279.153	496.69
279.285	-229.31
279.417	578.69
279.549	48.69
279.681	-93.31
279.813	-160.31
279.945	45.69
280.077	-246.31
280.209	1076.69
280.341	-276.31
280.473	-187.31
280.605	78.69
280.737	6.69
280.869	201.69
281.001	-68.31
281.133	-329.31
281.265	4.69
281.397	-156.31
281.529	283.69
281.661	-259.31
281.793	-356.31
281.925	-217.31
282.057	-163.31
282.189	-153.31
282.321	-54.31
282.453	12.69
282.585	-258.31
282.717	142.69
282.849	-81.31
282.98	-158.31
283.112	-207.31
283.244	-23.31
283.376	-246.31
283.508	-384.31
283.64	-236.31
283.772	86.69
283.904	85.69
284.036	-300.31
284.168	134.69
284.299	-54.31
284.431	-32.31
284.563	-157.31
284.695	-136.31
284.827	-243.31
284.959	-13.31
285.091	-236.31
285.222	-263.31
285.354	-178.31
285.486	-115.31
285.618	-271.31
285.75	-115.31
285.882	177.69
286.013	37.69
286.145	-24.31
286.277	16.69
286.409	86.69
286.541	54.69
286.673	-210.31
286.804	-225.31
286.936	-101.31
287.068	-206.31
287.2	-230.31
287.332	310.69
287.463	-319.31
287.595	-69.31
287.727	391.69
287.859	-139.31
287.99	-100.31
288.122	-200.31
288.254	17.69
288.386	-164.31
288.517	-270.31
288.649	-166.31
288.781	-20.31
288.913	0.69
289.044	-289.31
289.176	196.69
289.308	-174.31
289.44	-338.31
289.571	-186.31
289.703	-267.31
289.835	71.69
289.967	-214.31
290.098	-299.31
290.23	-305.31
290.362	77.69
290.493	-319.31
290.625	-208.31
290.757	-184.31
290.888	-145.31
291.02	-43.31
291.152	-42.31
291.283	-9.31
291.415	-130.31
291.547	-276.31
291.678	-221.31
291.81	-32.31
291.942	271.69
292.073	-10.31
292.205	-287.31
292.337	59.69
292.468	475.69
292.6	-199.31
292.732	588.69
292.863	-252.31
292.995	-350.31
293.126	60.69
293.258	200.69
293.39	-286.31
293.521	-245.31
293.653	-320.31
293.785	98.69
293.916	-133.31
294.048	30.69
294.179	15.69
294.311	-228.31
294.442	10.69
294.574	-280.31
294.706	-85.31
294.837	112.69
294.969	-59.31
295.1	-199.31
295.232	-234.31
295.363	188.69
295.495	-181.31
295.627	24.69
295.758	101.69
295.89	-335.31
296.021	53.69
296.153	42.69
296.284	-74.31
296.416	-127.31
296.547	-165.31
296.679	-79.31
296.81	-29.31
296.942	-341.31
297.073	-277.31
297.205	-289.31
297.336	-182.31
297.468	-226.31
297.599	-72.31
297.731	-326.31
297.862	-139.31
297.994	-327.31
298.125	-252.31
298.257	-170.31
298.388	10.69
298.52	22.69
298.651	-127.31
298.782	267.69
298.914	-242.31
299.045	-175.31
299.177	-315.31
299.308	-324.31
299.44	8.69
299.571	-43.31
299.702	-151.31
299.834	-97.31
299.965	-152.31
300.097	-221.31
300.228	-50.31
300.36	-55.31
300.491	-99.31
300.622	-13.31
300.754	-143.31
300.885	-213.31
301.017	-68.31
301.148	-170.31
301.279	-337.31
301.411	21.69
301.542	-32.31
301.673	-33.31
301.805	9.69
301.936	-229.31
302.067	-144.31
302.199	-187.31
302.33	-234.31
302.461	320.69
302.593	-7.31
302.724	-52.31
302.855	-302.31
302.987	-139.31
303.118	-263.31
303.249	-341.31
303.381	-149.31
303.512	-220.31
303.643	-204.31
303.775	145.69
303.906	-245.31
304.037	-229.31
304.169	-215.31
304.3	-148.31
304.431	-262.31
304.562	-211.31
304.694	-180.31
304.825	-57.31
304.956	116.69
305.087	-186.31
305.219	-1.31
305.35	-55.31
305.481	-223.31
305.612	34.69
305.744	-19.31
305.875	-203.31
306.006	483.69
306.137	-212.31
306.269	-70.31
306.4	45.69
306.531	97.69
306.662	-161.31
306.794	115.69
306.925	-215.31
307.056	-276.31
307.187	-28.31
307.318	-96.31
307.45	-143.31
307.581	-240.31
307.712	-251.31
307.843	-102.31
307.974	-64.31
308.105	118.69
308.237	-61.31
308.368	-291.31
308.499	-149.31
308.63	-5.31
308.761	-147.31
308.892	-113.31
309.024	-178.31
309.155	-186.31
309.286	-183.31
309.417	-276.31
309.548	-165.31
309.679	-162.31
309.81	-396.31
309.941	453.69
310.073	-32.31
310.204	-328.31
310.335	-6.31
310.466	-184.31
310.597	-283.31
310.728	-168.31
310.859	351.69
310.99	307.69
311.121	-106.31
311.252	-81.31
311.383	-259.31
311.514	-40.31
311.646	-185.31
311.777	-17.31
311.908	-47.31
312.039	-128.31
312.17	-332.31
312.301	-144.31
312.432	-212.31
312.563	-343.31
312.694	-38.31
312.825	-146.31
312.956	-212.31
313.087	38.69
313.218	57.69
313.349	-148.31
313.48	-306.31
313.611	-107.31
313.742	-114.31
313.873	74.69
314.004	-29.31
314.135	-178.31
314.266	-75.31
314.397	-157.31
314.528	-291.31
314.659	-273.31
314.79	-248.31
314.921	12.69
315.052	24.69
315.183	-250.31
315.314	-327.31
315.445	53.69
315.576	-34.31
315.707	-137.31
315.838	-187.31
315.968	-15.31
316.099	-263.31
316.23	-314.31
316.361	95.69
316.492	-145.31
316.623	54.69
316.754	167.69
316.885	-400.31
317.016	-301.31
317.147	-355.31
317.278	97.69
317.408	-257.31
317.539	-269.31
317.67	-276.31
317.801	-41.31
317.932	-174.31
318.063	-212.31
318.194	-138.31
318.325	-7.31
318.455	-362.31
318.586	-130.31
318.717	-54.31
318.848	-315.31
318.979	59.69
319.11	269.69
319.24	29.69
319.371	65.69
319.502	-94.31
319.633	-220.31
319.764	-109.31
319.895	-270.31
320.025	-70.31
320.156	-298.31
320.287	-423.31
320.418	-245.31
320.549	-53.31
320.679	-300.31
320.81	105.69
320.941	-340.31
321.072	-297.31
321.202	-49.31
321.333	267.69
321.464	-400.31
321.595	-231.31
321.726	232.69
321.856	-373.31
321.987	-183.31
322.118	-210.31
322.249	9.69
322.379	-68.31
322.51	-19.31
322.641	-103.31
322.771	-325.31
322.902	-94.31
323.033	-112.31
323.164	666.69
323.294	-179.31
323.425	-215.31
323.556	-183.31
323.686	-92.31
323.817	282.69
323.948	-19.31
324.078	-161.31
324.209	164.69
324.34	-188.31
324.47	195.69
324.601	-211.31
324.732	-69.31
324.862	11.69
324.993	-221.31
325.124	-420.31
325.254	-65.31
325.385	-74.31
325.516	481.69
325.646	374.69
325.777	-171.31
325.908	-149.31
326.038	54.69
326.169	-131.31
326.299	-85.31
326.43	101.69
326.561	-136.31
326.691	-142.31
326.822	-277.31
326.952	-205.31
327.083	-71.31
327.214	-247.31
327.344	-82.31
327.475	-8.31
327.605	-64.31
327.736	-159.31
327.867	-296.31
327.997	-141.31
328.128	-28.31
328.258	-343.31
328.389	222.69
328.519	-288.31
328.65	24.69
328.78	-242.31
328.911	-42.31
329.041	120.69
329.172	-344.31
329.303	-218.31
329.433	-150.31
329.564	-228.31
329.694	-271.31
329.825	-225.31
329.955	-54.31
330.086	431.69
330.216	-156.31
330.347	-262.31
330.477	-122.31
330.608	-112.31
330.738	-119.31
330.868	-304.31
330.999	-189.31
331.129	113.69
331.26	-258.31
331.39	-182.31
331.521	155.69
331.651	39.69
331.782	-347.31
331.912	-299.31
332.043	-265.31
332.173	70.69
332.303	-331.31
332.434	136.69
332.564	3.69
332.695	-181.31
332.825	-348.31
332.956	-227.31
333.086	-119.31
333.216	-254.31
333.347	-48.31
333.477	-400.31
333.608	-99.31
333.738	-23.31
333.868	-126.31
333.999	-56.31
334.129	78.69
334.259	-70.31
334.39	-207.31
334.52	43.69
334.65	-180.31
334.781	120.69
334.911	-221.31
335.042	-258.31
335.172	-33.31
335.302	-117.31
335.433	246.69
335.563	-268.31
335.693	19.69
335.824	222.69
335.954	-369.31
336.084	-14.31
336.214	-55.31
336.345	283.69
336.475	55.69
336.605	-234.31
336.736	262.69
336.866	-113.31
336.996	-150.31
337.126	-265.31
337.257	-76.31
337.387	-340.31
337.517	-227.31
337.648	-343.31
337.778	158.69
337.908	65.69
338.038	16.69
338.169	-169.31
338.299	207.69
338.429	-25.31
338.559	-252.31
338.69	-197.31
338.82	390.69
338.95	-15.31
339.08	-429.31
339.21	-301.31
339.341	-125.31
339.471	25.69
339.601	-105.31
339.731	-60.31
339.861	-168.31
339.992	-146.31
340.122	-133.31
340.252	-201.31
340.382	-211.31
340.512	-97.31
340.642	158.69
340.773	-40.31
340.903	-307.31
341.033	-100.31
341.163	-22.31
341.293	121.69
341.423	-235.31
341.554	-300.31
341.684	-38.31
341.814	-137.31
341.944	-173.31
342.074	-98.31
342.204	-161.31
342.334	197.69
342.464	-288.31
342.595	-142.31
342.725	-282.31
342.855	-63.31
342.985	-178.31
343.115	-296.31
343.245	-388.31
343.375	-29.31
343.505	-137.31
343.635	-7.31
343.765	-209.31
343.895	-382.31
344.025	23.69
344.155	-313.31
344.286	-192.31
344.416	-87.31
344.546	139.69
344.676	-94.31
344.806	157.69
344.936	-48.31
345.066	168.69
345.196	-249.31
345.326	-327.31
345.456	115.69
345.586	-271.31
345.716	-292.31
345.846	29.69
345.976	-368.31
346.106	-101.31
346.236	84.69
346.366	14.69
346.496	-157.31
346.626	-168.31
346.756	-221.31
346.886	-224.31
347.016	-323.31
347.146	-228.31
347.276	-241.31
347.406	-183.31
347.536	-37.31
347.666	95.69
347.795	-243.31
347.925	-150.31
348.055	111.69
348.185	-141.31
348.315	-204.31
348.445	115.69
348.575	-188.31
348.705	-252.31
348.835	-260.31
348.965	-168.31
349.095	11.69
349.225	244.69
349.354	-248.31
349.484	-180.31
349.614	-164.31
349.744	-254.31
349.874	-248.31
350.004	-318.31
350.134	-269.31
350.264	-327.31
350.393	-314.31
350.523	159.69
350.653	-330.31
350.783	21.69
350.913	144.69
351.043	-223.31
351.173	-192.31
351.302	-35.31
351.432	188.69
351.562	-125.31
351.692	-74.31
351.822	-188.31
351.951	-373.31
352.081	175.69
352.211	-124.31
352.341	183.69
352.471	105.69
352.6	-132.31
352.73	-214.31
352.86	-126.31
352.99	-17.31
353.12	-69.31
353.249	-25.31
353.379	-243.31
353.509	68.69
353.639	-292.31
353.768	-106.31
353.898	-233.31
354.028	-316.31
354.158	-181.31
354.287	-211.31
354.417	-287.31
354.547	-258.31
354.677	-379.31
354.806	-107.31
354.936	10.69
355.066	-178.31
355.195	-38.31
355.325	-3.31
355.455	-273.31
355.584	150.69
355.714	-259.31
355.844	116.69
355.974	-20.31
356.103	-131.31
356.233	-153.31
356.363	26.69
356.492	-277.31
356.622	-295.31
356.752	-4.31
356.881	-387.31
357.011	37.69
357.14	130.69
357.27	-151.31
357.4	40.69
357.529	-142.31
357.659	120.69
357.789	19.69
357.918	-282.31
358.048	-350.31
358.177	-118.31
358.307	-261.31
358.437	-53.31
358.566	-246.31
358.696	54.69
358.825	159.69
358.955	-303.31
359.085	5.69
359.214	-392.31
359.344	-114.31
359.473	-269.31
359.603	-174.31
359.733	-200.31
359.862	-334.31
359.992	64.69
360.121	-182.31
360.251	25.69
360.38	-327.31
360.51	74.69
360.639	-181.31
360.769	-63.31
360.898	99.69
361.028	73.69
361.157	-94.31
361.287	-66.31
361.416	-240.31
361.546	-126.31
361.675	-166.31
361.805	-147.31
361.934	39.69
362.064	-187.31
362.193	-185.31
362.323	-291.31
362.452	78.69
362.582	-257.31
362.711	-121.31
362.841	13.69
362.97	13.69
363.1	-227.31
363.229	-289.31
363.359	-151.31
363.488	-251.31
363.617	-112.31
363.747	-105.31
363.876	-376.31
364.006	-42.31
364.135	-97.31
364.265	-131.31
364.394	-180.31
364.523	280.69
364.653	-271.31
364.782	2.69
364.912	-270.31
365.041	-294.31
365.17	-257.31
365.3	-73.31
365.429	178.69
365.558	-162.31
365.688	-246.31
365.817	-273.31
365.947	-59.31
366.076	-67.31
366.205	-104.31
366.335	-335.31
366.464	-255.31
366.593	122.69
366.723	-157.31
366.852	-35.31
366.981	-81.31
367.111	-278.31
367.24	-151.31
367.369	-149.31
367.499	524.69
367.628	148.69
367.757	-170.31
367.886	-54.31
368.016	86.69
368.145	-133.31
368.274	-76.31
368.404	-297.31
368.533	-103.31
368.662	-12.31
368.791	-230.31
368.921	-362.31
369.05	123.69
369.179	-76.31
369.308	285.69
369.438	-308.31
369.567	-356.31
369.696	-146.31
369.825	-2.31
369.955	-158.31
370.084	-56.31
370.213	-139.31
370.342	-284.31
370.472	-290.31
370.601	385.69
370.73	47.69
370.859	-432.31
370.988	-168.31
371.118	-290.31
371.247	3.69
371.376	82.69
371.505	-48.31
371.634	-26.31
371.763	-118.31
371.893	-242.31
372.022	-138.31
372.151	-253.31
372.28	-332.31
372.409	-395.31
372.538	-184.31
372.667	-50.31
372.797	93.69
372.926	-351.31
373.055	-66.31
373.184	-141.31
373.313	-262.31
373.442	-37.31
373.571	-218.31
373.7	-148.31
373.83	-48.31
373.959	-424.31
374.088	-151.31
374.217	86.69
374.346	-172.31
374.475	-365.31
374.604	-237.31
374.733	239.69
374.862	-112.31
374.991	-265.31
375.12	-63.31
375.249	-49.31
375.378	-219.31
375.508	-304.31
375.637	-313.31
375.766	67.69
375.895	-194.31
376.024	110.69
376.153	-234.31
376.282	-149.31
376.411	-233.31
376.54	-451.31
376.669	-47.31
376.798	-181.31
376.927	-306.31
377.056	78.69
377.185	-66.31
377.314	83.69
377.443	251.69
377.572	-280.31
377.701	-285.31
377.83	140.69
377.959	-33.31
378.088	1649.69
378.217	133.69
378.346	-186.31
378.474	-363.31
378.603	-298.31
378.732	-53.31
378.861	-177.31
378.99	-286.31
379.119	-372.31
379.248	-96.31
379.377	-191.31
379.506	-209.31
379.635	105.69
379.764	-98.31
379.893	-258.31
380.022	-310.31
380.15	-105.31
380.279	-347.31
380.408	-261.31
380.537	-148.31
380.666	-10.31
380.795	-64.31
380.924	-132.31
381.053	-282.31
381.181	-75.31
381.31	746.69
381.439	-247.31
381.568	-187.31
381.697	-188.31
381.826	-156.31
381.955	-278.31
382.083	-112.31
382.212	-342.31
382.341	19.69
382.47	-256.31
382.599	-176.31
382.727	241.69
382.856	-67.31
382.985	-30.31
383.114	-178.31
383.243	-259.31
383.371	-138.31
383.5	-249.31
383.629	-306.31
383.758	-227.31
383.887	-417.31
384.015	-59.31
384.144	-288.31
384.273	-107.31
384.402	-4.31
384.53	-268.31
384.659	-308.31
384.788	-292.31
384.917	-226.31
385.045	-92.31
385.174	-107.31
385.303	-385.31
385.432	20.69
385.56	-94.31
385.689	-182.31
385.818	-61.31
385.946	-50.31
386.075	-242.31
386.204	-297.31
386.332	-112.31
386.461	47.69
386.59	24.69
386.718	-333.31
386.847	-159.31
386.976	-213.31
387.104	-368.31
387.233	-291.31
387.362	-105.31
387.49	-96.31
387.619	-281.31
387.748	-161.31
387.876	138.69
388.005	-83.31
388.134	94.69
388.262	-354.31
388.391	-258.31
388.52	-35.31
388.648	-299.31
388.777	65.69
388.905	-245.31
389.034	-186.31
389.163	-255.31
389.291	-134.31
389.42	23.69
389.548	76.69
389.677	-107.31
389.805	-103.31
389.934	-7.31
390.063	-315.31
390.191	-351.31
390.32	-233.31
390.448	-185.31
390.577	-291.31
390.705	-288.31
390.834	-130.31
390.962	-330.31
391.091	-293.31
391.22	85.69
391.348	138.69
391.477	-25.31
391.605	-329.31
391.734	-190.31
391.862	-243.31
391.991	-326.31
392.119	-285.31
392.248	-163.31
392.376	-102.31
392.505	-170.31
392.633	-236.31
392.762	287.69
392.89	-300.31
393.018	30.69
393.147	-198.31
393.275	-377.31
393.404	-293.31
393.532	-197.31
393.661	-94.31
393.789	-43.31
393.918	-81.31
394.046	-134.31
394.174	-124.31
394.303	-331.31
394.431	-229.31
394.56	17.69
394.688	-369.31
394.817	-378.31
394.945	99.69
395.073	25.69
395.202	-65.31
395.33	-179.31
395.459	-144.31
395.587	91.69
395.715	82.69
395.844	-102.31
395.972	-410.31
396.1	90.69
396.229	-279.31
396.357	-53.31
396.485	-209.31
396.614	-260.31
396.742	97.69
396.87	-92.31
396.999	-36.31
397.127	-328.31
397.255	-68.31
397.384	70.69
397.512	-384.31
397.64	-265.31
397.769	-148.31
397.897	-53.31
398.025	-143.31
398.154	-76.31
398.282	210.69
398.41	-97.31
398.538	-92.31
398.667	-229.31
398.795	-236.31
398.923	15.69
399.052	-222.31
399.18	-201.31
399.308	-154.31
399.436	181.69
399.565	-315.31
399.693	-59.31
399.821	-132.31
399.949	-214.31
400.078	288.69
400.206	-329.31
400.334	-306.31
400.462	-144.31
400.59	-340.31
400.719	-215.31
400.847	-288.31
400.975	-62.31
401.103	-228.31
401.231	-87.31
401.36	-137.31
401.488	-10.31
401.616	-196.31
401.744	-186.31
401.872	-237.31
402	-10.31
402.129	-205.31
402.257	-280.31
402.385	-178.31
402.513	-156.31
402.641	-186.31
402.769	-103.31
402.897	-268.31
403.026	-345.31
403.154	-363.31
403.282	-310.31
403.41	-195.31
403.538	131.69
403.666	-329.31
403.794	-191.31
403.922	-108.31
404.05	-77.31
404.179	-127.31
404.307	-59.31
404.435	-309.31
404.563	-297.31
404.691	-377.31
404.819	456.69
404.947	-288.31
405.075	-235.31
405.203	-356.31
405.331	-237.31
405.459	-286.31
405.587	-132.31
405.715	-258.31
405.843	-207.31
405.971	-85.31
406.099	126.69
406.227	-35.31
406.355	-175.31
406.483	-362.31
406.611	-69.31
406.739	-303.31
406.867	-308.31
406.995	-208.31
407.123	-188.31
407.251	-397.31
407.379	-336.31
407.507	-49.31
407.635	-148.31
407.763	-440.31
407.891	-414.31
408.019	9.69
408.147	9.69
408.275	162.69
408.403	-353.31
408.531	-388.31
408.659	207.69
408.787	-129.31
408.915	-216.31
409.043	-268.31
409.171	66.69
409.299	12.69
409.427	44.69
409.554	-370.31
409.682	267.69
409.81	-107.31
409.938	-224.31
410.066	-15.31
410.194	-49.31
410.322	-324.31
410.45	-202.31
410.578	-362.31
410.705	-306.31
410.833	-115.31
410.961	60.69
411.089	314.69
411.217	-177.31
411.345	-187.31
411.473	-280.31
411.6	-95.31
411.728	-219.31
411.856	-330.31
411.984	-309.31
412.112	-71.31
412.239	-66.31
412.367	-204.31
412.495	115.69
412.623	-259.31
412.751	15.69
412.878	-379.31
413.006	-172.31
413.134	76.69
413.262	158.69
413.39	-59.31
413.517	-118.31
413.645	42.69
413.773	-354.31
413.901	202.69
414.028	-190.31
414.156	-144.31
414.284	-271.31
414.412	45.69
414.539	-191.31
414.667	-182.31
414.795	-222.31
414.923	-406.31
415.05	-193.31
415.178	-37.31
415.306	320.69
415.433	-248.31
415.561	26.69
415.689	31.69
415.816	-259.31
415.944	158.69
416.072	-303.31
416.2	8.69
416.327	267.69
416.455	-285.31
416.583	-243.31
416.71	-230.31
416.838	154.69
416.966	-322.31
417.093	-206.31
417.221	63.69
417.348	-49.31
417.476	-342.31
417.604	-183.31
417.731	-142.31
417.859	54.69
417.987	-95.31
418.114	-274.31
418.242	22.69
418.369	-225.31
418.497	-344.31
418.625	177.69
418.752	-124.31
418.88	-332.31
419.007	169.69
419.135	-94.31
419.263	-198.31
419.39	67.69
419.518	70.69
419.645	37.69
419.773	621.69
419.9	1795.69
420.028	4268.69
420.155	4994.69
420.283	7105.69
420.41	7957.69
420.538	8790.69
420.666	9493.69
420.793	9637.69
420.921	8730.69
421.048	6961.69
421.176	4757.69
421.303	2365.69
421.431	661.69
421.558	-84.31
421.686	256.69
421.813	82.69
421.941	-173.31
422.068	-64.31
422.195	75.69
422.323	48.69
422.45	-348.31
422.578	-104.31
422.705	-236.31
422.833	-191.31
422.96	-238.31
423.088	-15.31
423.215	367.69
423.343	291.69
423.47	-93.31
423.597	202.69
423.725	-132.31
423.852	-128.31
423.98	-58.31
424.107	-357.31
424.234	-136.31
424.362	-211.31
424.489	-226.31
424.617	480.69
424.744	-85.31
424.871	-315.31
424.999	-128.31
425.126	101.69
425.253	-42.31
425.381	-207.31
425.508	-298.31
425.636	23.69
425.763	-224.31
425.89	-231.31
426.018	-360.31
426.145	-170.31
426.272	-81.31
426.4	31.69
426.527	97.69
426.654	-298.31
426.781	-74.31
426.909	-110.31
427.036	-110.31
427.163	-374.31
427.291	-312.31
427.418	-170.31
427.545	-108.31
427.673	-345.31
427.8	-355.31
427.927	-302.31
428.054	-88.31
428.182	-175.31
428.309	-172.31
428.436	-235.31
428.563	-314.31
428.691	-73.31
428.818	-229.31
428.945	-0.31
429.072	-325.31
429.2	-71.31
429.327	-51.31
429.454	34.69
429.581	-136.31
429.708	-403.31
429.836	-248.31
429.963	-192.31
430.09	-247.31
430.217	-234.31
430.344	-289.31
430.472	-289.31
430.599	-17.31
430.726	-208.31
430.853	-136.31
430.98	-25.31
431.107	-279.31
431.235	-150.31
431.362	-34.31
431.489	-142.31
431.616	230.69
431.743	84.69
431.87	-341.31
431.997	-196.31
432.125	-93.31
432.252	-449.31
432.379	-199.31
432.506	-39.31
432.633	-271.31
432.76	-127.31
432.887	120.69
433.014	-202.31
433.141	-310.31
433.268	-59.31
433.395	-212.31
433.523	-191.31
433.65	-185.31
433.777	-193.31
433.904	-199.31
434.031	-390.31
434.158	-105.31
434.285	33.69
434.412	-374.31
434.539	-178.31
434.666	-270.31
434.793	-264.31
434.92	-294.31
435.047	-14.31
435.174	-173.31
435.301	2.69
435.428	238.69
435.555	175.69
435.682	-64.31
435.809	-342.31
435.936	117.69
436.063	-257.31
436.19	140.69
436.317	-279.31
436.444	7.69
436.571	-276.31
436.698	-68.31
436.825	97.69
436.952	-7.31
437.079	-87.31
437.206	1.69
437.333	-295.31
437.46	-198.31
437.587	-150.31
437.714	-313.31
437.84	-153.31
437.967	-344.31
438.094	-371.31
438.221	41.69
438.348	-186.31
438.475	8036.69
438.602	-297.31
438.729	-401.31
438.856	-282.31
438.983	-324.31
439.109	-29.31
439.236	24.69
439.363	-412.31
439.49	-243.31
439.617	-141.31
439.744	-262.31
439.871	420.69
439.997	-258.31
440.124	-88.31
440.251	-74.31
440.378	-243.31
440.505	-208.31
440.632	51.69
440.758	129.69
440.885	231.69
441.012	-266.31
441.139	42.69
441.266	-322.31
441.392	-250.31
441.519	-315.31
441.646	-371.31
441.773	-63.31
441.9	222.69
442.026	-221.31
442.153	-123.31
442.28	-72.31
442.407	-292.31
442.533	48.69
442.66	-46.31
442.787	-113.31
442.914	-286.31
443.04	-211.31
443.167	-151.31
443.294	-109.31
443.421	-97.31
443.547	-331.31
443.674	-142.31
443.801	-71.31
443.927	60.69
444.054	390.69
444.181	75.69
444.307	94.69
444.434	-97.31
444.561	-310.31
444.688	-394.31
444.814	-5.31
444.941	-198.31
445.068	-312.31
445.194	215.69
445.321	-288.31
445.447	191.69
445.574	-364.31
445.701	-375.31
445.827	-197.31
445.954	-428.31
446.081	-3.31
446.207	-319.31
446.334	-138.31
446.461	-186.31
446.587	-440.31
446.714	4.69
446.84	84.69
446.967	-253.31
447.094	-187.31
447.22	70.69
447.347	-158.31
447.473	-277.31
447.6	-79.31
447.726	-362.31
447.853	-114.31
447.98	-157.31
448.106	-100.31
448.233	-89.31
448.359	-260.31
448.486	-66.31
448.612	-233.31
448.739	-52.31
448.865	53.69
448.992	247.69
449.118	-202.31
449.245	-330.31
449.371	-312.31
449.498	-116.31
449.624	11.69
449.751	-112.31
449.877	-267.31
450.004	-142.31
450.13	-124.31
450.257	-284.31
450.383	-173.31
450.51	-375.31
450.636	-251.31
450.763	-212.31
450.889	-262.31
451.016	-435.31
451.142	-81.31
451.269	-264.31
451.395	247.69
451.521	-172.31
451.648	-255.31
451.774	-90.31
451.901	-379.31
452.027	-183.31
452.154	76.69
452.28	-170.31
452.406	-229.31
452.533	-256.31
452.659	-329.31
452.785	-211.31
452.912	-322.31
453.038	-340.31
453.165	-50.31
453.291	114.69
453.417	148.69
453.544	-323.31
453.67	-212.31
453.796	76.69
453.923	-305.31
454.049	-220.31
454.175	-272.31
454.302	-231.31
454.428	-49.31
454.554	-89.31
454.681	-272.31
454.807	-289.31
454.933	271.69
455.06	-104.31
455.186	-180.31
455.312	90.69
455.439	31.69
455.565	-340.31
455.691	-312.31
455.817	-27.31
455.944	69.69
456.07	-160.31
456.196	-27.31
456.322	-411.31
456.449	-361.31
456.575	-174.31
456.701	-273.31
456.827	-281.31
456.954	-351.31
457.08	-273.31
457.206	-434.31
457.332	-158.31
457.459	-351.31
457.585	-294.31
457.711	-236.31
457.837	-37.31
457.963	-85.31
458.09	-304.31
458.216	-341.31
458.342	-163.31
458.468	-199.31
458.594	-182.31
458.721	-140.31
458.847	-117.31
458.973	-347.31
459.099	-210.31
459.225	-227.31
459.351	-217.31
459.477	-73.31
459.604	-311.31
459.73	-212.31
459.856	-316.31
459.982	-149.31
460.108	-390.31
460.234	-443.31
460.36	-198.31
460.486	1.69
460.613	-285.31
460.739	46.69
460.865	-226.31
460.991	205.69
461.117	164.69
461.243	-303.31
461.369	-335.31
461.495	-220.31
461.621	-142.31
461.747	-73.31
461.873	-46.31
461.999	-304.31
462.125	-149.31
462.252	47.69
462.378	-124.31
462.504	-41.31
462.63	-97.31
462.756	-328.31
462.882	-210.31
463.008	-189.31
463.134	65.69
463.26	-362.31
463.386	-216.31
463.512	-110.31
463.638	-242.31
463.764	-313.31
463.89	-181.31
464.016	40.69
464.142	-64.31
464.268	-323.31
464.394	-232.31
464.52	-334.31
464.645	-93.31
464.771	20.69
464.897	-212.31
465.023	-247.31
465.149	-142.31
465.275	-367.31
465.401	-286.31
465.527	92.69
465.653	-120.31
465.779	50.69
465.905	-364.31
466.031	-117.31
466.157	-289.31
466.282	-221.31
466.408	-269.31
466.534	-143.31
466.66	-422.31
466.786	-176.31
466.912	-117.31
467.038	-129.31
467.164	-189.31
467.289	-250.31
467.415	-196.31
467.541	-177.31
467.667	-188.31
467.793	-237.31
467.919	-68.31
468.045	157.69
468.17	-295.31
468.296	-185.31
468.422	-229.31
468.548	20.69
468.674	-389.31
468.799	-288.31
468.925	-242.31
469.051	-295.31
469.177	-377.31
469.303	-411.31
469.428	-17.31
469.554	-247.31
469.68	-281.31
469.806	-86.31
469.931	-143.31
470.057	376.69
470.183	-474.31
470.309	-265.31
470.434	136.69
470.56	-171.31
470.686	-119.31
470.812	-174.31
470.937	-315.31
471.063	-287.31
471.189	-51.31
471.315	43.69
471.44	-138.31
471.566	-192.31
471.692	29.69
471.817	-270.31
471.943	-165.31
472.069	-21.31
472.194	-212.31
472.32	-259.31
472.446	-15.31
472.571	-293.31
472.697	-270.31
472.823	-138.31
472.948	-314.31
473.074	-123.31
473.2	-205.31
473.325	-334.31
473.451	-203.31
473.577	-187.31
473.702	-413.31
473.828	-208.31
473.953	-384.31
474.079	-128.31
474.205	-355.31
474.33	-358.31
474.456	-261.31
474.581	187.69
474.707	-235.31
474.833	-242.31
474.958	-56.31
475.084	25.69
475.209	-256.31
475.335	-284.31
475.46	-96.31
475.586	-211.31
475.712	-87.31
475.837	-226.31
475.963	-210.31
476.088	-372.31
476.214	-285.31
476.339	-225.31
476.465	-277.31
476.59	-385.31
476.716	78.69
476.841	-347.31
476.967	210.69
477.092	-237.31
477.218	-107.31
477.343	-301.31
477.469	217.69
477.594	-251.31
477.72	-327.31
477.845	-93.31
477.971	-225.31
478.096	-125.31
478.222	-217.31
478.347	3316.69
478.472	18.69
478.598	-272.31
478.723	-238.31
478.849	-13.31
478.974	-85.31
479.1	-326.31
479.225	-116.31
479.35	-251.31
479.476	-41.31
479.601	-312.31
479.727	33.69
479.852	-284.31
479.977	-143.31
480.103	-160.31
480.228	167.69
480.354	-199.31
480.479	63.69
480.604	-245.31
480.73	-261.31
480.855	-453.31
480.98	41.69
481.106	-363.31
481.231	-375.31
481.356	-294.31
481.482	-441.31
481.607	-326.31
481.732	-484.31
481.858	-226.31
481.983	-331.31
482.108	-289.31
482.234	-391.31
482.359	-271.31
482.484	107.69
482.61	-285.31
482.735	-133.31
482.86	-426.31
482.985	-226.31
483.111	-192.31
483.236	-78.31
483.361	-244.31
483.486	-316.31
483.612	37.69
483.737	-429.31
483.862	-167.31
483.987	-78.31
484.113	-401.31
484.238	-42.31
484.363	-368.31
484.488	-243.31
484.614	-26.31
484.739	-245.31
484.864	64.69
484.989	452.69
485.114	-95.31
485.24	-177.31
485.365	-251.31
485.49	-426.31
485.615	7.69
485.74	-213.31
485.865	-96.31
485.991	-109.31
486.116	-42.31
486.241	-384.31
486.366	-342.31
486.491	-48.31
486.616	-263.31
486.742	-211.31
486.867	-186.31
486.992	-326.31
487.117	-297.31
487.242	-291.31
487.367	-447.31
487.492	-226.31
487.617	-44.31
487.742	-183.31
487.868	-282.31
487.993	-34.31
488.118	-114.31
488.243	-105.31
488.368	-281.31
488.493	-411.31
488.618	-251.31
488.743	-248.31
488.868	-314.31
488.993	-172.31
489.118	-2.31
489.243	-184.31
489.368	-245.31
489.493	41.69
489.618	-170.31
489.743	-302.31
489.868	-158.31
489.993	-264.31
490.118	-413.31
490.243	393.69
490.368	-245.31
490.493	-15.31
490.618	-8.31
490.743	-430.31
490.868	-150.31
490.993	-163.31
491.118	-27.31
491.243	-327.31
491.368	-130.31
491.493	-24.31
491.618	-163.31
491.743	-204.31
491.868	-276.31
491.993	-217.31
492.118	-283.31
492.243	-116.31
492.368	-80.31
492.493	-278.31
492.618	113.69
492.743	-254.31
492.867	27.69
492.992	-149.31
493.117	15.69
493.242	-265.31
493.367	-154.31
493.492	37.69
493.617	-272.31
493.742	87.69
493.867	-216.31
493.991	-395.31
494.116	-158.31
494.241	-159.31
494.366	-232.31
494.491	-62.31
494.616	43.69
494.74	-296.31
494.865	-378.31
494.99	-255.31
495.115	-214.31
495.24	-154.31
495.365	-271.31
495.489	-209.31
495.614	-108.31
495.739	-230.31
495.864	-251.31
495.989	-389.31
496.113	8.69
496.238	-136.31
496.363	-285.31
496.488	-340.31
496.612	-31.31
496.737	-241.31
496.862	-218.31
496.987	-229.31
497.111	-334.31
497.236	-289.31
497.361	-308.31
497.486	73.69
497.61	-3.31
497.735	-203.31
497.86	-35.31
497.984	-56.31
498.109	-389.31
498.234	-320.31
498.359	-256.31
498.483	-155.31
498.608	-143.31
498.733	-206.31
498.857	-333.31
498.982	-168.31
499.107	-358.31
499.231	-166.31
499.356	-256.31
499.481	91.69
499.605	-503.31
499.73	-362.31
499.855	5.69
499.979	-306.31
500.104	-214.31
500.228	159.69
500.353	-224.31
500.478	-346.31
500.602	-120.31
500.727	82.69
500.852	-103.31
500.976	-426.31
501.101	-232.31
501.225	151.69
501.35	-314.31
501.474	-310.31
501.599	-11.31
501.724	-227.31
501.848	-168.31
501.973	71.69
502.097	-356.31
502.222	-405.31
502.346	-31.31
502.471	-108.31
502.595	-297.31
502.72	-357.31
502.844	-341.31
502.969	-224.31
503.094	120.69
503.218	-396.31
503.343	-272.31
503.467	-306.31
503.592	-239.31
503.716	-261.31
503.841	-132.31
503.965	168.69
504.089	-217.31
504.214	-333.31
504.338	-237.31
504.463	23.69
504.587	-113.31
504.712	-140.31
504.836	-189.31
504.961	265.69
505.085	77.69
505.21	-278.31
505.334	-270.31
505.458	240.69
505.583	-371.31
505.707	-88.31
505.832	-244.31
505.956	-135.31
506.08	-297.31
506.205	-258.31
506.329	89.69
506.454	-365.31
506.578	-154.31
506.702	-307.31
506.827	149.69
506.951	-76.31
507.076	-160.31
507.2	-361.31
507.324	-47.31
507.449	72.69
507.573	-209.31
507.697	-270.31
507.822	-168.31
507.946	-219.31
508.07	-410.31
508.195	-171.31
508.319	-213.31
508.443	-127.31
508.567	-437.31
508.692	-358.31
508.816	-321.31
508.94	-192.31
509.065	-428.31
509.189	-81.31
509.313	-29.31
509.437	0.69
509.562	-255.31
509.686	-117.31
509.81	-227.31
509.935	-112.31
510.059	31.69
510.183	-319.31
510.307	-385.31
510.431	-17.31
510.556	-162.31
510.68	-237.31
510.804	-401.31
510.928	-175.31
511.053	-384.31
511.177	-358.31
511.301	-193.31
511.425	-267.31
511.549	-162.31
511.674	-156.31
511.798	-207.31
511.922	-89.31
512.046	157.69
512.17	-232.31
512.294	-337.31
512.419	-101.31
512.543	-52.31
512.667	-221.31
512.791	-309.31
512.915	-82.31
513.039	-220.31
513.163	-62.31
513.288	152.69
513.412	-230.31
513.536	39.69
513.66	-290.31
513.784	-180.31
513.908	-132.31
514.032	-158.31
514.156	-12.31
514.28	-32.31
514.404	-210.31
514.528	-200.31
514.653	-58.31
514.777	-9.31
514.901	-89.31
515.025	126.69
515.149	-250.31
515.273	-82.31
515.397	-209.31
515.521	-184.31
515.645	-200.31
515.769	-312.31
515.893	-260.31
516.017	-272.31
516.141	-419.31
516.265	-247.31
516.389	-269.31
516.513	-163.31
516.637	-315.31
516.761	-460.31
516.885	-284.31
517.009	-237.31
517.133	-106.31
517.257	-223.31
517.381	-8.31
517.505	-10.31
517.629	81.69
517.753	-216.31
517.877	-353.31
518.001	-246.31
518.125	-233.31
518.248	-46.31
518.372	-159.31
518.496	-366.31
518.62	-79.31
518.744	-188.31
518.868	-109.31
518.992	-125.31
519.116	-312.31
519.24	405.69
519.364	55.69
519.488	-155.31
519.611	-419.31
519.735	-209.31
519.859	-218.31
519.983	-42.31
520.107	-244.31
520.231	9.69
520.355	-142.31
520.478	-314.31
520.602	-323.31
520.726	66.69
520.85	-192.31
520.974	-8.31
521.098	-279.31
521.221	-333.31
521.345	73.69
521.469	-269.31
521.593	-215.31
521.717	30.69
521.84	-175.31
521.964	-293.31
522.088	-242.31
522.212	-176.31
522.335	-399.31
522.459	-287.31
522.583	217.69
522.707	-345.31
522.83	-436.31
522.954	-323.31
523.078	-297.31
523.202	-25.31
523.325	-246.31
523.449	-165.31
523.573	-170.31
523.697	-287.31
523.82	-192.31
523.944	-206.31
524.068	-202.31
524.191	-250.31
524.315	-408.31
524.439	-154.31
524.562	-38.31
524.686	-245.31
524.81	-330.31
524.933	-245.31
525.057	-234.31
525.181	-103.31
525.304	-365.31
525.428	73.69
525.552	-370.31
525.675	-164.31
525.799	-293.31
525.923	-124.31
526.046	-78.31
526.17	-445.31
526.293	-353.31
526.417	-136.31
526.541	3.69
526.664	-237.31
526.788	-239.31
526.911	-79.31
527.035	-349.31
527.159	-254.31
527.282	-276.31
527.406	-307.31
527.529	-64.31
527.653	-375.31
527.776	-106.31
527.9	-289.31
528.024	-282.31
528.147	-232.31
528.271	9.69
528.394	-0.31
528.518	-3.31
528.641	-357.31
528.765	-126.31
528.888	-170.31
529.012	-115.31
529.135	-268.31
529.259	66.69
529.382	-220.31
529.506	-302.31
529.629	-117.31
529.753	-361.31
529.876	80.69
530	58.69
530.123	-137.31
530.247	-317.31
530.37	-247.31
530.493	-154.31
530.617	-327.31
530.74	25.69
530.864	-51.31
530.987	-360.31
531.111	-93.31
531.234	-326.31
531.357	32.69
531.481	9.69
531.604	43.69
531.728	-376.31
531.851	-119.31
531.974	-89.31
532.098	-240.31
532.221	-279.31
532.345	-196.31
532.468	-367.31
532.591	155.69
532.715	-188.31
532.838	-232.31
532.961	-211.31
533.085	-317.31
533.208	-143.31
533.331	-389.31
533.455	-14.31
533.578	-235.31
533.701	-150.31
533.825	-5.31
533.948	-282.31
534.071	-224.31
534.195	-67.31
534.318	-291.31
534.441	-295.31
534.564	-71.31
534.688	-263.31
534.811	-34.31
534.934	-186.31
535.058	-117.31
535.181	40.69
535.304	-31.31
535.427	-290.31
535.551	-393.31
535.674	-195.31
535.797	-71.31
535.92	-13.31
536.043	-357.31
536.167	-346.31
536.29	-83.31
536.413	-142.31
536.536	-357.31
536.66	-252.31
536.783	-129.31
536.906	-163.31
537.029	-274.31
537.152	-278.31
537.275	-183.31
537.399	109.69
537.522	-460.31
537.645	-208.31
537.768	-232.31
537.891	-155.31
538.014	-181.31
538.138	-273.31
538.261	-233.31
538.384	-168.31
538.507	-355.31
538.63	-226.31
538.753	131.69
538.876	-134.31
538.999	-328.31
539.123	-82.31
539.246	182.69
539.369	268.69
539.492	-311.31
539.615	-338.31
539.738	185.69
539.861	-259.31
539.984	-186.31
540.107	-123.31
540.23	-242.31
540.353	-306.31
540.476	-475.31
540.599	-91.31
540.722	-348.31
540.846	-137.31
540.969	-400.31
541.092	-138.31
541.215	-328.31
541.338	-131.31
541.461	-352.31
541.584	-188.31
541.707	-186.31
541.83	-295.31
541.953	-146.31
542.076	-117.31
542.199	-175.31
542.322	98.69
542.445	147.69
542.567	-253.31
542.69	-135.31
542.813	-236.31
542.936	-77.31
543.059	-145.31
543.182	229.69
543.305	40.69
543.428	-151.31
543.551	-207.31
543.674	104.69
543.797	-50.31
543.92	-222.31
544.043	279.69
544.166	-296.31
544.288	-222.31
544.411	-79.31
544.534	-321.31
544.657	-137.31
544.78	-227.31
544.903	-97.31
545.026	-206.31
545.149	-319.31
545.271	-333.31
545.394	-254.31
545.517	-379.31
545.64	385.69
545.763	-234.31
545.886	-318.31
546.008	-121.31
546.131	-7.31
546.254	-170.31
546.377	-383.31
546.5	-66.31
546.623	-44.31
546.745	-316.31
546.868	-210.31
546.991	24.69
547.114	-141.31
547.236	-198.31
547.359	-297.31
547.482	-106.31
547.605	-285.31
547.728	-238.31
547.85	-372.31
547.973	-319.31
548.096	-188.31
548.219	-78.31
548.341	-226.31
548.464	-364.31
548.587	-206.31
548.709	-204.31
548.832	-143.31
548.955	269.69
549.078	-18.31
549.2	-276.31
549.323	-229.31
549.446	165.69
549.568	-148.31
549.691	-61.31
549.814	-58.31
549.936	-275.31
550.059	-214.31
550.182	-328.31
550.304	-382.31
550.427	-158.31
550.55	-250.31
550.672	-272.31
550.795	254.69
550.917	-275.31
551.04	-193.31
551.163	-103.31
551.285	30.69
551.408	22.69
551.531	304.69
551.653	-351.31
551.776	-96.31
551.898	-69.31
552.021	-131.31
552.143	-218.31
552.266	-194.31
552.389	-163.31
552.511	-353.31
552.634	-363.31
552.756	-321.31
552.879	195.69
553.001	39.69
553.124	-416.31
553.246	-312.31
553.369	44.69
553.492	-182.31
553.614	14.69
553.737	-483.31
553.859	-10.31
553.982	-18.31
554.104	-148.31
554.227	-292.31
554.349	-208.31
554.472	-165.31
554.594	-463.31
554.716	17.69
554.839	-43.31
554.961	-106.31
555.084	-346.31
555.206	-151.31
555.329	-388.31
555.451	-334.31
555.574	-88.31
555.696	-335.31
555.819	-166.31
555.941	-198.31
556.063	-78.31
556.186	-184.31
556.308	-92.31
556.431	213.69
556.553	-23.31
556.675	-272.31
556.798	-235.31
556.92	-26.31
557.043	-291.31
557.165	-364.31
557.287	-11.31
557.41	-189.31
557.532	-142.31
557.654	-206.31
557.777	16.69
557.899	-142.31
558.021	-246.31
558.144	44.69
558.266	38.69
558.388	242.69
558.511	-211.31
558.633	-179.31
558.755	-250.31
558.878	-297.31
559	-14.31
559.122	-409.31
559.244	-270.31
559.367	-183.31
559.489	30.69
559.611	126.69
559.734	-147.31
559.856	-137.31
559.978	-144.31
560.1	-156.31
560.223	-188.31
560.345	60.69
560.467	-333.31
560.589	-246.31
560.712	-223.31
560.834	186.69
560.956	-317.31
561.078	-208.31
561.2	-86.31
561.323	73.69
561.445	-402.31
561.567	-235.31
561.689	-329.31
561.811	-57.31
561.934	-216.31
562.056	-173.31
562.178	-88.31
562.3	-213.31
562.422	-54.31
562.544	-152.31
562.666	11.69
562.789	-99.31
562.911	-137.31
563.033	-43.31
563.155	-18.31
563.277	-273.31
563.399	-434.31
563.521	-249.31
563.643	-325.31
563.766	-166.31
563.888	24.69
564.01	-135.31
564.132	-328.31
564.254	-363.31
564.376	47.69
564.498	-126.31
564.62	110.69
564.742	-180.31
564.864	-425.31
564.986	-134.31
565.108	262.69
565.23	-262.31
565.352	-40.31
565.474	-115.31
565.597	168.69
565.719	102.69
565.841	-362.31
565.963	-93.31
566.085	-111.31
566.207	-211.31
566.329	32.69
566.451	25.69
566.573	-211.31
566.695	-183.31
566.817	147.69
566.938	-337.31
567.06	-196.31
567.182	-127.31
567.304	-218.31
567.426	-363.31
567.548	29.69
567.67	-101.31
567.792	-167.31
567.914	-291.31
568.036	-169.31
568.158	-148.31
568.28	-286.31
568.402	-65.31
568.524	-196.31
568.646	-303.31
568.767	-257.31
568.889	-19.31
569.011	-206.31
569.133	-257.31
569.255	-387.31
569.377	-332.31
569.499	-96.31
569.621	-224.31
569.742	201.69
569.864	11.69
569.986	281.69
570.108	-8.31
570.23	-343.31
570.352	108.69
570.473	-105.31
570.595	-202.31
570.717	-332.31
570.839	-166.31
570.961	-19.31
571.082	-189.31
571.204	-284.31
571.326	-296.31
571.448	-2.31
571.57	17.69
571.691	-146.31
571.813	-145.31
571.935	70.69
572.057	-152.31
572.178	-333.31
572.3	103.69
572.422	118.69
572.544	168.69
572.665	-291.31
572.787	-310.31
572.909	86.69
573.031	-60.31
573.152	-342.31
573.274	-44.31
573.396	-17.31
573.517	-45.31
573.639	-426.31
573.761	-283.31
573.882	-165.31
574.004	-7.31
574.126	-301.31
574.247	0.69
574.369	-37.31
574.491	-149.31
574.612	-307.31
574.734	-179.31
574.856	-126.31
574.977	-15.31
575.099	-149.31
575.221	-142.31
575.342	-192.31
575.464	-130.31
575.585	-73.31
575.707	-304.31
575.829	107.69
575.95	62.69
576.072	-241.31
576.193	-312.31
576.315	-199.31
576.437	-193.31
576.558	-199.31
576.68	-215.31
576.801	216.69
576.923	-330.31
577.044	51.69
577.166	-399.31
577.287	-131.31
577.409	-202.31
577.531	-164.31
577.652	-43.31
577.774	-386.31
577.895	-152.31
578.017	-311.31
578.138	-271.31
578.26	-156.31
578.381	-54.31
578.503	-260.31
578.624	-259.31
578.746	-350.31
578.867	-195.31
578.988	-83.31
579.11	113.69
579.231	-88.31
579.353	-223.31
579.474	-157.31
579.596	-249.31
579.717	29.69
579.839	-140.31
579.96	-453.31
580.081	-73.31
580.203	-195.31
580.324	-89.31
580.446	-39.31
580.567	-160.31
580.688	181.69
580.81	-302.31
580.931	-220.31
581.053	-412.31
581.174	-152.31
581.295	-235.31
581.417	-50.31
581.538	-20.31
581.659	-56.31
581.781	-154.31
581.902	-252.31
582.024	-324.31
582.145	-296.31
582.266	-266.31
582.388	-167.31
582.509	-327.31
582.63	-146.31
582.751	-212.31
582.873	-201.31
582.994	-221.31
583.115	-166.31
583.237	-130.31
583.358	-281.31
583.479	-432.31
583.6	21.69
583.722	-170.31
583.843	-317.31
583.964	63.69
584.086	-223.31
584.207	-68.31
584.328	-348.31
584.449	-96.31
584.57	-101.31
584.692	-130.31
584.813	866.69
584.934	-158.31
585.055	-285.31
585.177	-10.31
585.298	-119.31
585.419	-330.31
585.54	168.69
585.661	-64.31
585.783	-107.31
585.904	-294.31
586.025	101.69
586.146	-298.31
586.267	-254.31
586.388	-191.31
586.51	273.69
586.631	-316.31
586.752	-335.31
586.873	-244.31
586.994	-332.31
587.115	-300.31
587.236	-267.31
587.357	-406.31
587.479	-258.31
587.6	37.69
587.721	-232.31
587.842	-290.31
587.963	129.69
588.084	96.69
588.205	-314.31
588.326	-232.31
588.447	-149.31
588.568	-170.31
588.689	-135.31
588.81	-76.31
588.931	-194.31
589.052	-263.31
589.174	-283.31
589.295	-96.31
589.416	-112.31
589.537	43.69
589.658	-249.31
589.779	-364.31
589.9	31.69
590.021	-226.31
590.142	-251.31
590.263	-389.31
590.384	-141.31
590.505	201.69
590.626	-323.31
590.747	-129.31
590.867	-23.31
590.988	-47.31
591.109	-204.31
591.23	48.69
591.351	-2.31
591.472	-133.31
591.593	-261.31
591.714	-110.31
591.835	-227.31
591.956	-211.31
592.077	-394.31
592.198	-177.31
592.319	-97.31
592.44	-23.31
592.56	-255.31
592.681	-388.31
592.802	-56.31
592.923	-162.31
593.044	-289.31
593.165	-370.31
593.286	-65.31
593.407	-261.31
593.527	31.69
593.648	-301.31
593.769	-73.31
593.89	65.69
594.011	-148.31
594.132	-281.31
594.252	-86.31
594.373	-295.31
594.494	-411.31
594.615	-188.31
594.736	-204.31
594.856	41.69
594.977	-333.31
595.098	-106.31
595.219	-313.31
595.34	-93.31
595.46	-340.31
595.581	190.69
595.702	-150.31
595.823	-293.31
595.943	-105.31
596.064	-140.31
596.185	122.69
596.306	-378.31
596.426	-311.31
596.547	-339.31
596.668	-79.31
596.788	-76.31
596.909	-167.31
597.03	-88.31
597.151	-154.31
597.271	-242.31
597.392	-206.31
597.513	-81.31
597.633	-41.31
597.754	-101.31
597.875	-194.31
597.995	96.69
598.116	-90.31
598.237	-194.31
598.357	-277.31
598.478	-292.31
598.599	153.69
598.719	-175.31
598.84	-343.31
598.96	-283.31
599.081	-153.31
599.202	-174.31
599.322	-298.31
599.443	-317.31
599.563	-52.31
599.684	28.69
599.805	-251.31
599.925	-397.31
600.046	196.69
600.166	-174.31
600.287	-136.31
600.407	-157.31
600.528	40.69
600.649	-49.31
600.769	-138.31
600.89	-372.31
601.01	3.69
601.131	-225.31
601.251	127.69
601.372	-138.31
601.492	-217.31
601.613	-257.31
601.733	-243.31
601.854	217.69
601.974	291.69
602.095	122.69
602.215	-372.31
602.336	-335.31
602.456	215.69
602.577	-236.31
602.697	666.69
602.817	-36.31
602.938	-126.31
603.058	-61.31
603.179	-353.31
603.299	-314.31
603.42	-360.31
603.54	-86.31
603.66	-337.31
603.781	-109.31
603.901	-217.31
604.022	89.69
604.142	-178.31
604.262	-155.31
604.383	-252.31
604.503	112.69
604.624	-296.31
604.744	-123.31
604.864	-53.31
604.985	-229.31
605.105	-104.31
605.225	-138.31
605.346	-131.31
605.466	17.69
605.586	199.69
605.707	280.69
605.827	-312.31
605.947	-211.31
606.068	-204.31
606.188	-208.31
606.308	-247.31
606.429	30.69
606.549	-257.31
606.669	-363.31
606.789	-292.31
606.91	-32.31
607.03	-276.31
607.15	-247.31
607.27	-85.31
607.391	23.69
607.511	-257.31
607.631	-276.31
607.751	131.69
607.872	-25.31
607.992	-309.31
608.112	59.69
608.232	-254.31
608.353	-313.31
608.473	-273.31
608.593	123.69
608.713	306.69
608.833	-129.31
608.954	-276.31
609.074	-225.31
609.194	-306.31
609.314	195.69
609.434	-48.31
609.554	-150.31
609.675	-40.31
609.795	-244.31
609.915	-302.31
610.035	274.69
610.155	-165.31
610.275	-177.31
610.395	-43.31
610.516	-351.31
610.636	-142.31
610.756	-60.31
610.876	-57.31
610.996	-314.31
611.116	179.69
611.236	-351.31
611.356	-274.31
611.476	-170.31
611.596	-108.31
611.716	109.69
611.836	-302.31
611.957	-317.31
612.077	-122.31
612.197	-39.31
612.317	-275.31
612.437	33.69
612.557	73.69
612.677	-176.31
612.797	-126.31
612.917	-328.31
613.037	-50.31
613.157	-112.31
613.277	-125.31
613.397	103.69
613.517	144.69
613.637	-239.31
613.757	-173.31
613.877	-265.31
613.997	-90.31
614.117	-245.31
614.237	-210.31
614.356	-89.31
614.476	62.69
614.596	-8.31
614.716	-167.31
614.836	-184.31
614.956	-45.31
615.076	-76.31
615.196	-332.31
615.316	-153.31
615.436	-27.31
615.556	150.69
615.676	172.69
615.795	-83.31
615.915	-89.31
616.035	-241.31
616.155	-194.31
616.275	-280.31
616.395	-196.31
616.515	25.69
616.635	-409.31
616.754	-428.31
616.874	3.69
616.994	-145.31
617.114	239.69
617.234	52.69
617.354	13.69
617.473	337.69
617.593	-232.31
617.713	-157.31
617.833	-41.31
617.953	-65.31
618.072	-467.31
618.192	-274.31
618.312	81.69
618.432	78.69
618.551	-301.31
618.671	-256.31
618.791	9.69
618.911	-109.31
619.03	-174.31
619.15	-155.31
619.27	-158.31
619.39	-228.31
619.509	-204.31
619.629	-214.31
619.749	-282.31
619.868	-96.31
619.988	-354.31
620.108	-224.31
620.228	741.69
620.347	-78.31
620.467	-286.31
620.587	-297.31
620.706	66.69
620.826	-264.31
620.946	-282.31
621.065	-7.31
621.185	279.69
621.305	-226.31
621.424	-212.31
621.544	-435.31
621.663	-22.31
621.783	-204.31
621.903	187.69
622.022	-326.31
622.142	-137.31
622.261	139.69
622.381	-126.31
622.501	-51.31
622.62	-174.31
622.74	-116.31
622.859	-212.31
622.979	95.69
623.099	-211.31
623.218	-50.31
623.338	129.69
623.457	-67.31
623.577	-225.31
623.696	-87.31
623.816	-395.31
623.935	-309.31
624.055	-267.31
624.174	-101.31
624.294	-184.31
624.413	-356.31
624.533	-46.31
624.652	104.69
624.772	-298.31
624.891	-402.31
625.011	25.69
625.13	-191.31
625.25	-360.31
625.369	-233.31
625.489	-198.31
625.608	-259.31
625.728	-160.31
625.847	-156.31
625.966	-270.31
626.086	-279.31
626.205	-337.31
626.325	-114.31
626.444	-104.31
626.564	185.69
626.683	19.69
626.802	-9.31
626.922	131.69
627.041	-23.31
627.161	-157.31
627.28	-3.31
627.399	-25.31
627.519	-99.31
627.638	-402.31
627.757	-279.31
627.877	-143.31
627.996	-165.31
628.115	-54.31
628.235	-43.31
628.354	-332.31
628.473	-98.31
628.593	89.69
628.712	-141.31
628.831	-89.31
628.951	-330.31
629.07	76.69
629.189	-125.31
629.309	-162.31
629.428	212.69
629.547	-358.31
629.666	-51.31
629.786	-123.31
629.905	-300.31
630.024	-47.31
630.143	-93.31
630.263	-155.31
630.382	260.69
630.501	-196.31
630.62	-262.31
630.74	-300.31
630.859	84.69
630.978	-180.31
631.097	-349.31
631.216	-295.31
631.336	168.69
631.455	-266.31
631.574	-230.31
631.693	-14.31
631.812	-174.31
631.932	-425.31
632.051	77.69
632.17	355.69
632.289	31.69
632.408	-259.31
632.527	-180.31
632.646	-71.31
632.766	-241.31
632.885	166.69
633.004	-365.31
633.123	-146.31
633.242	-236.31
633.361	617.69
633.48	-270.31
633.599	-225.31
633.718	43.69
633.838	-118.31
633.957	-355.31
634.076	-51.31
634.195	-164.31
634.314	-38.31
634.433	-32.31
634.552	-246.31
634.671	-84.31
634.79	203.69
634.909	33.69
635.028	-63.31
635.147	-13.31
635.266	-298.31
635.385	-89.31
635.504	-311.31
635.623	-27.31
635.742	-378.31
635.861	-356.31
635.98	-94.31
636.099	-231.31
636.218	-199.31
636.337	-146.31
636.456	280.69
636.575	18.69
636.694	-135.31
636.813	-351.31
636.932	-304.31
637.051	-119.31
637.17	-394.31
637.289	-115.31
637.408	-317.31
637.526	-83.31
637.645	-456.31
637.764	-377.31
637.883	-172.31
638.002	44.69
638.121	367.69
638.24	-283.31
638.359	62.69
638.478	-203.31
638.597	-303.31
638.715	345.69
638.834	-118.31
638.953	18.69
639.072	-324.31
639.191	-388.31
639.31	31.69
639.428	-90.31
639.547	-94.31
639.666	-22.31
639.785	-20.31
639.904	-120.31
640.023	-363.31
640.141	-201.31
640.26	-142.31
640.379	5.69
640.498	-404.31
640.616	-128.31
640.735	-131.31
640.854	77.69
640.973	-312.31
641.092	-33.31
641.21	-30.31
641.329	-156.31
641.448	-3.31
641.567	226.69
641.685	-127.31
641.804	-149.31
641.923	-175.31
642.041	-277.31
642.16	-147.31
642.279	98.69
642.398	-218.31
642.516	-257.31
642.635	152.69
642.754	-193.31
642.872	47.69
642.991	59.69
643.11	-228.31
643.228	-267.31
643.347	-348.31
643.466	-359.31
643.584	42.69
643.703	257.69
643.821	-150.31
643.94	-106.31
644.059	-54.31
644.177	30.69
644.296	-337.31
644.415	-234.31
644.533	-89.31
644.652	4.69
644.77	-359.31
644.889	-328.31
645.008	48.69
645.126	-234.31
645.245	-38.31
645.363	43.69
645.482	-37.31
645.6	-128.31
645.719	-216.31
645.837	-217.31
645.956	-62.31
646.074	-288.31
646.193	-248.31
646.312	3.69
646.43	146.69
646.549	212.69
646.667	-453.31
646.786	-318.31
646.904	21.69
647.023	-19.31
647.141	-301.31
647.26	22.69
647.378	415.69
647.496	-134.31
647.615	-71.31
647.733	-86.31
647.852	228.69
647.97	-223.31
648.089	-11.31
648.207	-10.31
648.326	117.69
648.444	-160.31
648.562	-151.31
648.681	-106.31
648.799	-154.31
648.918	-96.31
649.036	-132.31
649.154	-269.31
649.273	79.69
649.391	-149.31
649.51	-305.31
649.628	-332.31
649.746	203.69
649.865	-182.31
649.983	-295.31
650.101	-128.31
650.22	-122.31
650.338	-238.31
650.456	-216.31
650.575	-211.31
650.693	-254.31
650.811	-8.31
650.93	-355.31
651.048	1072.69
651.166	330.69
651.285	-105.31
651.403	-61.31
651.521	-132.31
651.639	-110.31
651.758	-147.31
651.876	161.69
651.994	-305.31
652.112	106.69
652.231	-104.31
652.349	-293.31
652.467	-491.31
652.585	-129.31
652.704	-2.31
652.822	-416.31
652.94	-367.31
653.058	-15.31
653.176	-195.31
653.295	-150.31
653.413	-14.31
653.531	-215.31
653.649	-140.31
653.767	-320.31
653.886	-327.31
654.004	-234.31
654.122	143.69
654.24	-385.31
654.358	-325.31
654.476	-127.31
654.594	189.69
654.713	-214.31
654.831	-407.31
654.949	-147.31
655.067	-2.31
655.185	-368.31
655.303	-240.31
655.421	-155.31
655.539	108.69
655.658	-156.31
655.776	-238.31
655.894	29.69
656.012	172.69
656.13	-374.31
656.248	-232.31
656.366	-247.31
656.484	-157.31
656.602	-313.31
656.72	-282.31
656.838	-53.31
656.956	-154.31
657.074	-71.31
657.192	-97.31
657.31	-261.31
657.428	-168.31
657.546	-109.31
657.664	-163.31
657.782	-111.31
657.9	87.69
658.018	-228.31
658.136	-155.31
658.254	71.69
658.372	106.69
658.49	-335.31
658.608	-298.31
658.726	-21.31
658.844	33.69
658.962	-267.31
659.08	-348.31
659.198	-21.31
659.316	-87.31
