Data from HR4D30811__5__00005.txt Node

Date: Fri Jan 26 16:32:06 MST 2024
User: Brock
Spectrometer: HR4D3081
Trigger mode: 4
Integration Time (sec): 8.000000E0
Scans to average: 1
Electric dark correction enabled: true
Nonlinearity correction enabled: false
Boxcar width: 0
XAxis mode: Wavelengths
Number of Pixels in Spectrum: 3648
>>>>>Begin Spectral Data<<<<<
197.25	-1228.85
197.385	-1228.85
197.519	-1228.85
197.653	-1213.85
197.787	178.15
197.922	-151.85
198.056	71.15
198.19	11.15
198.324	21.15
198.459	-191.85
198.593	434.15
198.727	-40.85
198.861	-97.85
198.996	234.15
199.13	-246.85
199.264	-212.85
199.398	-86.85
199.533	257.15
199.667	136.15
199.801	-49.85
199.935	-260.85
200.07	3.15
200.204	-21.85
200.338	-150.85
200.472	-160.85
200.606	-340.85
200.741	-156.85
200.875	-132.85
201.009	-115.85
201.143	-221.85
201.277	92.15
201.412	91.15
201.546	218.15
201.68	179.15
201.814	-161.85
201.948	81.15
202.082	-63.85
202.217	-306.85
202.351	-93.85
202.485	-23.85
202.619	-240.85
202.753	-333.85
202.887	289.15
203.021	152.15
203.156	233.15
203.29	47.15
203.424	-48.85
203.558	-170.85
203.692	-82.85
203.826	-276.85
203.96	-106.85
204.094	212.15
204.229	-150.85
204.363	-198.85
204.497	-320.85
204.631	-267.85
204.765	-200.85
204.899	-129.85
205.033	-137.85
205.167	-211.85
205.301	21.15
205.435	-292.85
205.569	-66.85
205.704	-61.85
205.838	-293.85
205.972	-121.85
206.106	551.15
206.24	-163.85
206.374	-218.85
206.508	35.15
206.642	39.15
206.776	-58.85
206.91	221.15
207.044	21.15
207.178	107.15
207.312	10.15
207.446	-122.85
207.58	-178.85
207.714	-259.85
207.848	148.15
207.982	-375.85
208.116	14.15
208.25	-202.85
208.384	-164.85
208.518	-177.85
208.652	-222.85
208.786	-280.85
208.92	228.15
209.054	-10.85
209.188	-278.85
209.322	-74.85
209.456	-91.85
209.59	-259.85
209.724	-81.85
209.858	-53.85
209.992	-113.85
210.126	-159.85
210.26	-164.85
210.394	-85.85
210.528	-35.85
210.662	-204.85
210.796	-147.85
210.929	112.15
211.063	18.15
211.197	-68.85
211.331	-0.85
211.465	-171.85
211.599	82.15
211.733	105.15
211.867	-188.85
212.001	-185.85
212.135	-21.85
212.269	-212.85
212.402	-181.85
212.536	88.15
212.67	-107.85
212.804	-256.85
212.938	85.15
213.072	-179.85
213.206	-98.85
213.34	-173.85
213.473	-140.85
213.607	83.15
213.741	-272.85
213.875	-268.85
214.009	-231.85
214.143	-141.85
214.277	-116.85
214.41	-233.85
214.544	258.15
214.678	173.15
214.812	261.15
214.946	-268.85
215.08	-149.85
215.213	-176.85
215.347	-104.85
215.481	-96.85
215.615	-338.85
215.749	27.15
215.882	-236.85
216.016	-292.85
216.15	89.15
216.284	185.15
216.418	-3.85
216.551	100.15
216.685	44.15
216.819	-257.85
216.953	-176.85
217.086	230.15
217.22	-170.85
217.354	-10.85
217.488	92.15
217.621	113.15
217.755	-10.85
217.889	-125.85
218.023	-82.85
218.156	74.15
218.29	94.15
218.424	211.15
218.558	-246.85
218.691	-362.85
218.825	-105.85
218.959	418.15
219.092	-117.85
219.226	-348.85
219.36	-276.85
219.494	-34.85
219.627	-160.85
219.761	-186.85
219.895	-86.85
220.028	-293.85
220.162	528.15
220.296	141.15
220.429	4.15
220.563	-44.85
220.697	-36.85
220.83	-194.85
220.964	-180.85
221.098	-243.85
221.231	-247.85
221.365	73.15
221.499	-211.85
221.632	-239.85
221.766	30.15
221.9	-110.85
222.033	91.15
222.167	104.15
222.3	-183.85
222.434	6.15
222.568	280.15
222.701	-161.85
222.835	-138.85
222.968	-227.85
223.102	-215.85
223.236	-264.85
223.369	-1.85
223.503	-3.85
223.636	-209.85
223.77	-173.85
223.904	-10.85
224.037	-169.85
224.171	80.15
224.304	18.15
224.438	-163.85
224.571	-91.85
224.705	191.15
224.839	-59.85
224.972	-320.85
225.106	-30.85
225.239	-111.85
225.373	85.15
225.506	-71.85
225.64	75.15
225.773	-108.85
225.907	-211.85
226.04	-305.85
226.174	-69.85
226.307	-63.85
226.441	-161.85
226.575	8.15
226.708	162.15
226.842	-84.85
226.975	-174.85
227.109	-213.85
227.242	13.15
227.375	41.15
227.509	-35.85
227.642	-155.85
227.776	50.15
227.909	70.15
228.043	-196.85
228.176	227.15
228.31	-235.85
228.443	326.15
228.577	-73.85
228.71	-103.85
228.844	1.15
228.977	-242.85
229.111	-175.85
229.244	51.15
229.377	-284.85
229.511	-56.85
229.644	-166.85
229.778	-155.85
229.911	-187.85
230.044	-85.85
230.178	-7.85
230.311	-206.85
230.445	41.15
230.578	-213.85
230.711	-57.85
230.845	340.15
230.978	73.15
231.112	-247.85
231.245	-238.85
231.378	-207.85
231.512	65.15
231.645	-379.85
231.779	-315.85
231.912	-32.85
232.045	49.15
232.179	-186.85
232.312	-123.85
232.445	90.15
232.579	270.15
232.712	148.15
232.845	-187.85
232.979	-354.85
233.112	45.15
233.245	-128.85
233.379	-275.85
233.512	-19.85
233.645	-227.85
233.779	-283.85
233.912	19.15
234.045	-154.85
234.179	58.15
234.312	-143.85
234.445	49.15
234.578	-7.85
234.712	20.15
234.845	67.15
234.978	-172.85
235.112	-56.85
235.245	124.15
235.378	-208.85
235.511	-11.85
235.645	17.15
235.778	26.15
235.911	-170.85
236.044	-281.85
236.178	287.15
236.311	-265.85
236.444	-253.85
236.577	-224.85
236.711	-75.85
236.844	-381.85
236.977	-129.85
237.11	-178.85
237.243	13.15
237.377	-279.85
237.51	-232.85
237.643	934.15
237.776	-158.85
237.909	-130.85
238.043	4.15
238.176	-236.85
238.309	-61.85
238.442	-312.85
238.575	-81.85
238.709	431.15
238.842	18.15
238.975	-27.85
239.108	162.15
239.241	-299.85
239.374	-238.85
239.508	-208.85
239.641	201.15
239.774	369.15
239.907	-35.85
240.04	-257.85
240.173	23.15
240.306	227.15
240.44	-135.85
240.573	163.15
240.706	-143.85
240.839	21.15
240.972	-72.85
241.105	-47.85
241.238	22.15
241.371	-26.85
241.504	-33.85
241.638	-118.85
241.771	-40.85
241.904	-148.85
242.037	38.15
242.17	-190.85
242.303	-319.85
242.436	-93.85
242.569	-117.85
242.702	-189.85
242.835	-169.85
242.968	-51.85
243.101	-119.85
243.234	-237.85
243.367	-259.85
243.5	-125.85
243.634	-158.85
243.767	-320.85
243.9	-238.85
244.033	-231.85
244.166	96.15
244.299	-325.85
244.432	-244.85
244.565	2.15
244.698	-327.85
244.831	-187.85
244.964	-271.85
245.097	-188.85
245.23	2.15
245.363	166.15
245.496	-269.85
245.629	-120.85
245.762	481.15
245.895	-243.85
246.028	-199.85
246.161	437.15
246.294	55.15
246.427	-219.85
246.559	91.15
246.692	-35.85
246.825	-124.85
246.958	-222.85
247.091	-286.85
247.224	-317.85
247.357	-189.85
247.49	141.15
247.623	-151.85
247.756	-246.85
247.889	289.15
248.022	-92.85
248.155	-247.85
248.288	-99.85
248.421	-209.85
248.553	66.15
248.686	-223.85
248.819	112.15
248.952	-237.85
249.085	174.15
249.218	-38.85
249.351	-81.85
249.484	176.15
249.617	-84.85
249.749	-238.85
249.882	-223.85
250.015	-251.85
250.148	-181.85
250.281	-228.85
250.414	-154.85
250.547	-153.85
250.679	186.15
250.812	-97.85
250.945	24.15
251.078	-249.85
251.211	-149.85
251.344	-298.85
251.476	-168.85
251.609	-29.85
251.742	-250.85
251.875	-49.85
252.008	-201.85
252.14	-348.85
252.273	-125.85
252.406	173.15
252.539	-17.85
252.672	-51.85
252.804	166.15
252.937	-253.85
253.07	-38.85
253.203	-104.85
253.335	105.15
253.468	-321.85
253.601	-151.85
253.734	-48.85
253.866	-155.85
253.999	365.15
254.132	-47.85
254.265	-146.85
254.397	-166.85
254.53	-138.85
254.663	11.15
254.796	-208.85
254.928	-289.85
255.061	-224.85
255.194	-65.85
255.327	-305.85
255.459	-10.85
255.592	-307.85
255.725	186.15
255.857	-195.85
255.99	23.15
256.123	-208.85
256.255	-245.85
256.388	-59.85
256.521	-261.85
256.653	-297.85
256.786	-236.85
256.919	-152.85
257.051	-260.85
257.184	-9.85
257.317	-219.85
257.449	-241.85
257.582	-62.85
257.715	-194.85
257.847	-226.85
257.98	-102.85
258.113	-198.85
258.245	-133.85
258.378	-367.85
258.51	-252.85
258.643	-264.85
258.776	33.15
258.908	-258.85
259.041	-72.85
259.174	-157.85
259.306	-201.85
259.439	-293.85
259.571	-181.85
259.704	-95.85
259.837	161.15
259.969	-191.85
260.102	-233.85
260.234	238.15
260.367	66.15
260.499	-219.85
260.632	-132.85
260.765	-166.85
260.897	-196.85
261.03	-238.85
261.162	-76.85
261.295	-44.85
261.427	90.15
261.56	-58.85
261.692	-262.85
261.825	-57.85
261.957	103.15
262.09	114.15
262.222	30.15
262.355	-248.85
262.487	-110.85
262.62	-245.85
262.752	-71.85
262.885	-152.85
263.017	40.15
263.15	-188.85
263.282	-61.85
263.415	-256.85
263.547	-3.85
263.68	214.15
263.812	-303.85
263.945	-96.85
264.077	-252.85
264.21	170.15
264.342	-296.85
264.475	-235.85
264.607	199.15
264.74	-370.85
264.872	-57.85
265.004	137.15
265.137	75.15
265.269	335.15
265.402	-263.85
265.534	-148.85
265.667	-148.85
265.799	110.15
265.931	-110.85
266.064	-6.85
266.196	-134.85
266.329	-172.85
266.461	-180.85
266.593	37.15
266.726	-313.85
266.858	-163.85
266.99	-79.85
267.123	-145.85
267.255	-36.85
267.388	-118.85
267.52	-245.85
267.652	-228.85
267.785	134.15
267.917	-20.85
268.049	-135.85
268.182	386.15
268.314	66.15
268.446	-332.85
268.579	-190.85
268.711	228.15
268.843	-201.85
268.976	-72.85
269.108	383.15
269.24	164.15
269.373	2.15
269.505	-152.85
269.637	-142.85
269.77	-207.85
269.902	132.15
270.034	-277.85
270.167	32.15
270.299	-6.85
270.431	34.15
270.563	-193.85
270.696	6.15
270.828	-100.85
270.96	-68.85
271.092	14.15
271.225	-214.85
271.357	-65.85
271.489	-166.85
271.621	-243.85
271.754	516.15
271.886	-215.85
272.018	-179.85
272.15	291.15
272.283	-275.85
272.415	-163.85
272.547	80.15
272.679	83.15
272.811	-61.85
272.944	-122.85
273.076	-353.85
273.208	-38.85
273.34	-54.85
273.473	-124.85
273.605	78.15
273.737	-252.85
273.869	-13.85
274.001	-413.85
274.133	11.15
274.266	-164.85
274.398	1453.15
274.53	41.15
274.662	167.15
274.794	-19.85
274.926	71.15
275.059	-165.85
275.191	-3.85
275.323	-264.85
275.455	89.15
275.587	-230.85
275.719	-138.85
275.851	-103.85
275.983	32.15
276.116	-13.85
276.248	112.15
276.38	-249.85
276.512	12.15
276.644	-148.85
276.776	-209.85
276.908	-15.85
277.04	-122.85
277.172	75.15
277.304	-167.85
277.437	4.15
277.569	-191.85
277.701	-238.85
277.833	-100.85
277.965	-149.85
278.097	44.15
278.229	-183.85
278.361	-144.85
278.493	139.15
278.625	189.15
278.757	60.15
278.889	-262.85
279.021	-132.85
279.153	501.15
279.285	-216.85
279.417	598.15
279.549	86.15
279.681	-86.85
279.813	-146.85
279.945	43.15
280.077	-193.85
280.209	1034.15
280.341	-251.85
280.473	-135.85
280.605	76.15
280.737	-14.85
280.869	219.15
281.001	-41.85
281.133	-323.85
281.265	-10.85
281.397	-137.85
281.529	310.15
281.661	-255.85
281.793	-355.85
281.925	-209.85
282.057	-126.85
282.189	-150.85
282.321	-48.85
282.453	14.15
282.585	-244.85
282.717	154.15
282.849	-61.85
282.98	-173.85
283.112	-210.85
283.244	6.15
283.376	-241.85
283.508	-340.85
283.64	-207.85
283.772	109.15
283.904	117.15
284.036	-311.85
284.168	126.15
284.299	-37.85
284.431	-17.85
284.563	-144.85
284.695	-152.85
284.827	-215.85
284.959	-28.85
285.091	-218.85
285.222	-252.85
285.354	-160.85
285.486	-95.85
285.618	-248.85
285.75	-126.85
285.882	167.15
286.013	54.15
286.145	-60.85
286.277	19.15
286.409	100.15
286.541	36.15
286.673	-229.85
286.804	-211.85
286.936	-51.85
287.068	-200.85
287.2	-239.85
287.332	294.15
287.463	-321.85
287.595	-49.85
287.727	442.15
287.859	-118.85
287.99	-112.85
288.122	-206.85
288.254	81.15
288.386	-153.85
288.517	-271.85
288.649	-126.85
288.781	-4.85
288.913	-11.85
289.044	-289.85
289.176	192.15
289.308	-151.85
289.44	-351.85
289.571	-217.85
289.703	-241.85
289.835	46.15
289.967	-236.85
290.098	-295.85
290.23	-294.85
290.362	99.15
290.493	-338.85
290.625	-181.85
290.757	-159.85
290.888	-131.85
291.02	-15.85
291.152	-39.85
291.283	-9.85
291.415	-125.85
291.547	-254.85
291.678	-253.85
291.81	-40.85
291.942	299.15
292.073	-17.85
292.205	-283.85
292.337	80.15
292.468	501.15
292.6	-174.85
292.732	601.15
292.863	-237.85
292.995	-322.85
293.126	47.15
293.258	181.15
293.39	-271.85
293.521	-240.85
293.653	-290.85
293.785	83.15
293.916	-121.85
294.048	43.15
294.179	11.15
294.311	-228.85
294.442	55.15
294.574	-297.85
294.706	-111.85
294.837	109.15
294.969	-63.85
295.1	-190.85
295.232	-231.85
295.363	158.15
295.495	-198.85
295.627	16.15
295.758	131.15
295.89	-334.85
296.021	27.15
296.153	66.15
296.284	-57.85
296.416	-135.85
296.547	-148.85
296.679	-28.85
296.81	-33.85
296.942	-339.85
297.073	-276.85
297.205	-257.85
297.336	-147.85
297.468	-239.85
297.599	-64.85
297.731	-337.85
297.862	-115.85
297.994	-336.85
298.125	-270.85
298.257	-128.85
298.388	41.15
298.52	23.15
298.651	-68.85
298.782	256.15
298.914	-212.85
299.045	-135.85
299.177	-300.85
299.308	-301.85
299.44	36.15
299.571	-46.85
299.702	-149.85
299.834	-68.85
299.965	-151.85
300.097	-235.85
300.228	-7.85
300.36	-47.85
300.491	-114.85
300.622	2.15
300.754	-144.85
300.885	-191.85
301.017	-47.85
301.148	-196.85
301.279	-324.85
301.411	26.15
301.542	-41.85
301.673	-31.85
301.805	29.15
301.936	-217.85
302.067	-118.85
302.199	-184.85
302.33	-251.85
302.461	342.15
302.593	24.15
302.724	-20.85
302.855	-323.85
302.987	-118.85
303.118	-264.85
303.249	-346.85
303.381	-117.85
303.512	-228.85
303.643	-217.85
303.775	90.15
303.906	-222.85
304.037	-233.85
304.169	-211.85
304.3	-146.85
304.431	-272.85
304.562	-194.85
304.694	-119.85
304.825	-46.85
304.956	78.15
305.087	-198.85
305.219	14.15
305.35	-59.85
305.481	-195.85
305.612	14.15
305.744	-15.85
305.875	-177.85
306.006	510.15
306.137	-218.85
306.269	-21.85
306.4	54.15
306.531	92.15
306.662	-139.85
306.794	123.15
306.925	-193.85
307.056	-266.85
307.187	-20.85
307.318	-128.85
307.45	-151.85
307.581	-214.85
307.712	-229.85
307.843	-99.85
307.974	-75.85
308.105	125.15
308.237	-64.85
308.368	-286.85
308.499	-165.85
308.63	-3.85
308.761	-122.85
308.892	-99.85
309.024	-133.85
309.155	-200.85
309.286	-174.85
309.417	-254.85
309.548	-148.85
309.679	-131.85
309.81	-387.85
309.941	475.15
310.073	-46.85
310.204	-324.85
310.335	-11.85
310.466	-200.85
310.597	-275.85
310.728	-168.85
310.859	348.15
310.99	291.15
311.121	-97.85
311.252	-109.85
311.383	-228.85
311.514	-7.85
311.646	-163.85
311.777	-25.85
311.908	-40.85
312.039	-112.85
312.17	-320.85
312.301	-121.85
312.432	-195.85
312.563	-337.85
312.694	-24.85
312.825	-149.85
312.956	-231.85
313.087	51.15
313.218	74.15
313.349	-101.85
313.48	-335.85
313.611	-107.85
313.742	-109.85
313.873	93.15
314.004	-29.85
314.135	-172.85
314.266	-51.85
314.397	-165.85
314.528	-254.85
314.659	-258.85
314.79	-226.85
314.921	64.15
315.052	16.15
315.183	-260.85
315.314	-306.85
315.445	45.15
315.576	-44.85
315.707	-123.85
315.838	-159.85
315.968	-30.85
316.099	-260.85
316.23	-307.85
316.361	104.15
316.492	-134.85
316.623	90.15
316.754	180.15
316.885	-379.85
317.016	-309.85
317.147	-343.85
317.278	109.15
317.408	-238.85
317.539	-268.85
317.67	-276.85
317.801	-45.85
317.932	-155.85
318.063	-186.85
318.194	-137.85
318.325	-8.85
318.455	-354.85
318.586	-156.85
318.717	-29.85
318.848	-337.85
318.979	83.15
319.11	223.15
319.24	43.15
319.371	63.15
319.502	-100.85
319.633	-202.85
319.764	-109.85
319.895	-235.85
320.025	-67.85
320.156	-311.85
320.287	-411.85
320.418	-245.85
320.549	-44.85
320.679	-323.85
320.81	121.15
320.941	-348.85
321.072	-320.85
321.202	22.15
321.333	230.15
321.464	-395.85
321.595	-225.85
321.726	237.15
321.856	-349.85
321.987	-129.85
322.118	-200.85
322.249	15.15
322.379	-59.85
322.51	43.15
322.641	-72.85
322.771	-331.85
322.902	-81.85
323.033	-99.85
323.164	700.15
323.294	-172.85
323.425	-199.85
323.556	-205.85
323.686	-93.85
323.817	319.15
323.948	5.15
324.078	-130.85
324.209	158.15
324.34	-185.85
324.47	181.15
324.601	-222.85
324.732	-54.85
324.862	38.15
324.993	-228.85
325.124	-425.85
325.254	-36.85
325.385	-56.85
325.516	512.15
325.646	394.15
325.777	-138.85
325.908	-165.85
326.038	67.15
326.169	-125.85
326.299	-69.85
326.43	108.15
326.561	-121.85
326.691	-140.85
326.822	-263.85
326.952	-182.85
327.083	-80.85
327.214	-244.85
327.344	-61.85
327.475	-5.85
327.605	-27.85
327.736	-140.85
327.867	-263.85
327.997	-133.85
328.128	-41.85
328.258	-329.85
328.389	241.15
328.519	-274.85
328.65	47.15
328.78	-206.85
328.911	-24.85
329.041	83.15
329.172	-308.85
329.303	-201.85
329.433	-144.85
329.564	-258.85
329.694	-240.85
329.825	-193.85
329.955	-65.85
330.086	465.15
330.216	-158.85
330.347	-283.85
330.477	-102.85
330.608	-134.85
330.738	-112.85
330.868	-297.85
330.999	-180.85
331.129	140.15
331.26	-217.85
331.39	-196.85
331.521	162.15
331.651	25.15
331.782	-354.85
331.912	-278.85
332.043	-245.85
332.173	87.15
332.303	-321.85
332.434	125.15
332.564	-30.85
332.695	-199.85
332.825	-329.85
332.956	-187.85
333.086	-93.85
333.216	-268.85
333.347	-35.85
333.477	-415.85
333.608	-108.85
333.738	1.15
333.868	-108.85
333.999	-76.85
334.129	99.15
334.259	-60.85
334.39	-233.85
334.52	49.15
334.65	-175.85
334.781	117.15
334.911	-225.85
335.042	-264.85
335.172	-10.85
335.302	-124.85
335.433	233.15
335.563	-255.85
335.693	-0.85
335.824	283.15
335.954	-345.85
336.084	8.15
336.214	-34.85
336.345	328.15
336.475	85.15
336.605	-238.85
336.736	287.15
336.866	-110.85
336.996	-145.85
337.126	-272.85
337.257	-60.85
337.387	-322.85
337.517	-201.85
337.648	-337.85
337.778	161.15
337.908	101.15
338.038	17.15
338.169	-185.85
338.299	254.15
338.429	-12.85
338.559	-220.85
338.69	-169.85
338.82	401.15
338.95	-16.85
339.08	-441.85
339.21	-293.85
339.341	-100.85
339.471	47.15
339.601	-106.85
339.731	-50.85
339.861	-168.85
339.992	-123.85
340.122	-134.85
340.252	-195.85
340.382	-172.85
340.512	-61.85
340.642	170.15
340.773	-30.85
340.903	-282.85
341.033	-112.85
341.163	1.15
341.293	117.15
341.423	-203.85
341.554	-287.85
341.684	-27.85
341.814	-109.85
341.944	-140.85
342.074	-72.85
342.204	-171.85
342.334	169.15
342.464	-268.85
342.595	-160.85
342.725	-291.85
342.855	-71.85
342.985	-147.85
343.115	-268.85
343.245	-345.85
343.375	-5.85
343.505	-102.85
343.635	-3.85
343.765	-211.85
343.895	-357.85
344.025	42.15
344.155	-302.85
344.286	-162.85
344.416	-69.85
344.546	80.15
344.676	-91.85
344.806	148.15
344.936	-55.85
345.066	207.15
345.196	-248.85
345.326	-300.85
345.456	111.15
345.586	-237.85
345.716	-264.85
345.846	71.15
345.976	-365.85
346.106	-107.85
346.236	40.15
346.366	39.15
346.496	-176.85
346.626	-177.85
346.756	-207.85
346.886	-230.85
347.016	-321.85
347.146	-229.85
347.276	-255.85
347.406	-177.85
347.536	-46.85
347.666	102.15
347.795	-258.85
347.925	-150.85
348.055	130.15
348.185	-168.85
348.315	-170.85
348.445	130.15
348.575	-146.85
348.705	-241.85
348.835	-260.85
348.965	-150.85
349.095	-15.85
349.225	259.15
349.354	-240.85
349.484	-134.85
349.614	-150.85
349.744	-288.85
349.874	-224.85
350.004	-339.85
350.134	-260.85
350.264	-330.85
350.393	-277.85
350.523	139.15
350.653	-314.85
350.783	52.15
350.913	170.15
351.043	-233.85
351.173	-193.85
351.302	-21.85
351.432	171.15
351.562	-119.85
351.692	-102.85
351.822	-177.85
351.951	-356.85
352.081	189.15
352.211	-75.85
352.341	181.15
352.471	143.15
352.6	-139.85
352.73	-209.85
352.86	-156.85
352.99	-19.85
353.12	-51.85
353.249	-20.85
353.379	-233.85
353.509	42.15
353.639	-275.85
353.768	-61.85
353.898	-193.85
354.028	-292.85
354.158	-174.85
354.287	-191.85
354.417	-273.85
354.547	-259.85
354.677	-356.85
354.806	-115.85
354.936	9.15
355.066	-179.85
355.195	-30.85
355.325	-31.85
355.455	-231.85
355.584	200.15
355.714	-234.85
355.844	139.15
355.974	10.15
356.103	-133.85
356.233	-147.85
356.363	42.15
356.492	-267.85
356.622	-279.85
356.752	-3.85
356.881	-344.85
357.011	53.15
357.14	131.15
357.27	-151.85
357.4	75.15
357.529	-157.85
357.659	117.15
357.789	20.15
357.918	-286.85
358.048	-318.85
358.177	-82.85
358.307	-246.85
358.437	-88.85
358.566	-235.85
358.696	68.15
358.825	137.15
358.955	-286.85
359.085	-14.85
359.214	-392.85
359.344	-109.85
359.473	-272.85
359.603	-152.85
359.733	-191.85
359.862	-322.85
359.992	92.15
360.121	-154.85
360.251	10.15
360.38	-324.85
360.51	96.15
360.639	-159.85
360.769	-86.85
360.898	108.15
361.028	71.15
361.157	-106.85
361.287	-53.85
361.416	-233.85
361.546	-119.85
361.675	-133.85
361.805	-168.85
361.934	51.15
362.064	-165.85
362.193	-178.85
362.323	-257.85
362.452	125.15
362.582	-235.85
362.711	-107.85
362.841	32.15
362.97	13.15
363.1	-260.85
363.229	-315.85
363.359	-129.85
363.488	-207.85
363.617	-102.85
363.747	-91.85
363.876	-368.85
364.006	-41.85
364.135	-77.85
364.265	-120.85
364.394	-181.85
364.523	237.15
364.653	-255.85
364.782	7.15
364.912	-271.85
365.041	-302.85
365.17	-251.85
365.3	42.15
365.429	168.15
365.558	-161.85
365.688	-236.85
365.817	-274.85
365.947	-73.85
366.076	-63.85
366.205	-83.85
366.335	-352.85
366.464	-257.85
366.593	115.15
366.723	-146.85
366.852	-52.85
366.981	-75.85
367.111	-263.85
367.24	-162.85
367.369	-161.85
367.499	515.15
367.628	126.15
367.757	-174.85
367.886	-62.85
368.016	91.15
368.145	-115.85
368.274	-59.85
368.404	-297.85
368.533	-64.85
368.662	29.15
368.791	-194.85
368.921	-360.85
369.05	156.15
369.179	-94.85
369.308	328.15
369.438	-317.85
369.567	-355.85
369.696	-152.85
369.825	-20.85
369.955	-175.85
370.084	-12.85
370.213	-100.85
370.342	-299.85
370.472	-290.85
370.601	402.15
370.73	46.15
370.859	-387.85
370.988	-162.85
371.118	-264.85
371.247	64.15
371.376	91.15
371.505	-44.85
371.634	-25.85
371.763	-85.85
371.893	-240.85
372.022	-132.85
372.151	-259.85
372.28	-305.85
372.409	-395.85
372.538	-176.85
372.667	-58.85
372.797	130.15
372.926	-334.85
373.055	-61.85
373.184	-108.85
373.313	-253.85
373.442	-17.85
373.571	-203.85
373.7	-143.85
373.83	-48.85
373.959	-419.85
374.088	-154.85
374.217	68.15
374.346	-148.85
374.475	-365.85
374.604	-222.85
374.733	261.15
374.862	-132.85
374.991	-272.85
375.12	-46.85
375.249	-50.85
375.378	-246.85
375.508	-297.85
375.637	-309.85
375.766	54.15
375.895	-161.85
376.024	130.15
376.153	-249.85
376.282	-118.85
376.411	-190.85
376.54	-434.85
376.669	-83.85
376.798	-169.85
376.927	-273.85
377.056	106.15
377.185	-87.85
377.314	68.15
377.443	230.15
377.572	-282.85
377.701	-271.85
377.83	141.15
377.959	6.15
378.088	1691.15
378.217	111.15
378.346	-175.85
378.474	-372.85
378.603	-268.85
378.732	-45.85
378.861	-201.85
378.99	-281.85
379.119	-370.85
379.248	-97.85
379.377	-151.85
379.506	-186.85
379.635	132.15
379.764	-75.85
379.893	-256.85
380.022	-298.85
380.15	-79.85
380.279	-339.85
380.408	-264.85
380.537	-117.85
380.666	-10.85
380.795	-82.85
380.924	-131.85
381.053	-271.85
381.181	-63.85
381.31	726.15
381.439	-281.85
381.568	-166.85
381.697	-182.85
381.826	-131.85
381.955	-231.85
382.083	-104.85
382.212	-355.85
382.341	46.15
382.47	-242.85
382.599	-153.85
382.727	256.15
382.856	-74.85
382.985	5.15
383.114	-143.85
383.243	-219.85
383.371	-134.85
383.5	-251.85
383.629	-255.85
383.758	-251.85
383.887	-405.85
384.015	-86.85
384.144	-281.85
384.273	-94.85
384.402	-33.85
384.53	-241.85
384.659	-305.85
384.788	-283.85
384.917	-225.85
385.045	-92.85
385.174	-131.85
385.303	-369.85
385.432	50.15
385.56	-87.85
385.689	-192.85
385.818	-45.85
385.946	-2.85
386.075	-231.85
386.204	-283.85
386.332	-126.85
386.461	38.15
386.59	41.15
386.718	-318.85
386.847	-168.85
386.976	-169.85
387.104	-350.85
387.233	-284.85
387.362	-93.85
387.49	-83.85
387.619	-305.85
387.748	-126.85
387.876	137.15
388.005	-93.85
388.134	60.15
388.262	-330.85
388.391	-239.85
388.52	-33.85
388.648	-301.85
388.777	58.15
388.905	-220.85
389.034	-174.85
389.163	-248.85
389.291	-103.85
389.42	32.15
389.548	94.15
389.677	-95.85
389.805	-107.85
389.934	3.15
390.063	-302.85
390.191	-344.85
390.32	-205.85
390.448	-152.85
390.577	-298.85
390.705	-312.85
390.834	-131.85
390.962	-285.85
391.091	-285.85
391.22	100.15
391.348	120.15
391.477	-28.85
391.605	-335.85
391.734	-203.85
391.862	-196.85
391.991	-285.85
392.119	-280.85
392.248	-139.85
392.376	-105.85
392.505	-165.85
392.633	-193.85
392.762	326.15
392.89	-294.85
393.018	37.15
393.147	-159.85
393.275	-349.85
393.404	-278.85
393.532	-200.85
393.661	-119.85
393.789	-62.85
393.918	-88.85
394.046	-151.85
394.174	-138.85
394.303	-325.85
394.431	-219.85
394.56	39.15
394.688	-345.85
394.817	-376.85
394.945	96.15
395.073	62.15
395.202	-84.85
395.33	-163.85
395.459	-123.85
395.587	104.15
395.715	52.15
395.844	-125.85
395.972	-404.85
396.1	109.15
396.229	-255.85
396.357	-76.85
396.485	-199.85
396.614	-255.85
396.742	81.15
396.87	-103.85
396.999	-37.85
397.127	-336.85
397.255	-35.85
397.384	71.15
397.512	-346.85
397.64	-255.85
397.769	-144.85
397.897	-29.85
398.025	-166.85
398.154	-95.85
398.282	197.15
398.41	-69.85
398.538	-115.85
398.667	-209.85
398.795	-240.85
398.923	41.15
399.052	-172.85
399.18	-182.85
399.308	-146.85
399.436	176.15
399.565	-321.85
399.693	-56.85
399.821	-151.85
399.949	-194.85
400.078	293.15
400.206	-315.85
400.334	-312.85
400.462	-126.85
400.59	-331.85
400.719	-184.85
400.847	-302.85
400.975	-18.85
401.103	-248.85
401.231	-65.85
401.36	-129.85
401.488	-28.85
401.616	-172.85
401.744	-142.85
401.872	-242.85
402	4.15
402.129	-209.85
402.257	-268.85
402.385	-173.85
402.513	-104.85
402.641	-187.85
402.769	-122.85
402.897	-256.85
403.026	-335.85
403.154	-380.85
403.282	-298.85
403.41	-188.85
403.538	168.15
403.666	-342.85
403.794	-151.85
403.922	-69.85
404.05	-87.85
404.179	-117.85
404.307	-73.85
404.435	-289.85
404.563	-274.85
404.691	-371.85
404.819	453.15
404.947	-266.85
405.075	-242.85
405.203	-340.85
405.331	-246.85
405.459	-269.85
405.587	-71.85
405.715	-223.85
405.843	-222.85
405.971	-93.85
406.099	134.15
406.227	-27.85
406.355	-182.85
406.483	-382.85
406.611	-29.85
406.739	-293.85
406.867	-307.85
406.995	-235.85
407.123	-161.85
407.251	-384.85
407.379	-292.85
407.507	-18.85
407.635	-109.85
407.763	-424.85
407.891	-411.85
408.019	20.15
408.147	14.15
408.275	200.15
408.403	-304.85
408.531	-362.85
408.659	198.15
408.787	-107.85
408.915	-209.85
409.043	-210.85
409.171	89.15
409.299	6.15
409.427	81.15
409.554	-350.85
409.682	277.15
409.81	-99.85
409.938	-216.85
410.066	25.15
410.194	-50.85
410.322	-267.85
410.45	-214.85
410.578	-360.85
410.705	-276.85
410.833	-107.85
410.961	58.15
411.089	379.15
411.217	-147.85
411.345	-164.85
411.473	-266.85
411.6	-84.85
411.728	-212.85
411.856	-310.85
411.984	-314.85
412.112	-69.85
412.239	-48.85
412.367	-206.85
412.495	91.15
412.623	-253.85
412.751	46.15
412.878	-383.85
413.006	-175.85
413.134	82.15
413.262	193.15
413.39	-36.85
413.517	-81.85
413.645	22.15
413.773	-340.85
413.901	205.15
414.028	-176.85
414.156	-110.85
414.284	-271.85
414.412	39.15
414.539	-181.85
414.667	-219.85
414.795	-207.85
414.923	-394.85
415.05	-167.85
415.178	-52.85
415.306	330.15
415.433	-253.85
415.561	49.15
415.689	53.15
415.816	-242.85
415.944	186.15
416.072	-298.85
416.2	16.15
416.327	250.15
416.455	-267.85
416.583	-211.85
416.71	-215.85
416.838	136.15
416.966	-334.85
417.093	-190.85
417.221	73.15
417.348	-18.85
417.476	-318.85
417.604	-169.85
417.731	-142.85
417.859	59.15
417.987	-77.85
418.114	-238.85
418.242	43.15
418.369	-236.85
418.497	-322.85
418.625	140.15
418.752	-118.85
418.88	-280.85
419.007	166.15
419.135	-53.85
419.263	-214.85
419.39	14.15
419.518	94.15
419.645	62.15
419.773	645.15
419.9	1716.15
420.028	4247.15
420.155	5119.15
420.283	7120.15
420.41	8015.15
420.538	8766.15
420.666	9408.15
420.793	9656.15
420.921	8748.15
421.048	7010.15
421.176	4706.15
421.303	2472.15
421.431	683.15
421.558	-57.85
421.686	241.15
421.813	60.15
421.941	-200.85
422.068	-36.85
422.195	92.15
422.323	89.15
422.45	-349.85
422.578	-92.85
422.705	-222.85
422.833	-145.85
422.96	-267.85
423.088	-44.85
423.215	377.15
423.343	328.15
423.47	-90.85
423.597	181.15
423.725	-78.85
423.852	-111.85
423.98	-52.85
424.107	-356.85
424.234	-147.85
424.362	-204.85
424.489	-231.85
424.617	529.15
424.744	-61.85
424.871	-274.85
424.999	-133.85
425.126	113.15
425.253	-47.85
425.381	-189.85
425.508	-301.85
425.636	33.15
425.763	-206.85
425.89	-220.85
426.018	-311.85
426.145	-144.85
426.272	-89.85
426.4	53.15
426.527	118.15
426.654	-278.85
426.781	-69.85
426.909	-94.85
427.036	-91.85
427.163	-367.85
427.291	-286.85
427.418	-144.85
427.545	-120.85
427.673	-337.85
427.8	-348.85
427.927	-315.85
428.054	-93.85
428.182	-171.85
428.309	-188.85
428.436	-221.85
428.563	-301.85
428.691	-64.85
428.818	-201.85
428.945	15.15
429.072	-320.85
429.2	-76.85
429.327	-55.85
429.454	44.15
429.581	-127.85
429.708	-380.85
429.836	-244.85
429.963	-215.85
430.09	-257.85
430.217	-234.85
430.344	-308.85
430.472	-303.85
430.599	-32.85
430.726	-225.85
430.853	-122.85
430.98	-30.85
431.107	-265.85
431.235	-97.85
431.362	-57.85
431.489	-117.85
431.616	230.15
431.743	107.15
431.87	-324.85
431.997	-165.85
432.125	-98.85
432.252	-448.85
432.379	-180.85
432.506	-31.85
432.633	-258.85
432.76	-125.85
432.887	82.15
433.014	-170.85
433.141	-275.85
433.268	-25.85
433.395	-248.85
433.523	-149.85
433.65	-180.85
433.777	-213.85
433.904	-173.85
434.031	-347.85
434.158	-78.85
434.285	40.15
434.412	-355.85
434.539	-115.85
434.666	-283.85
434.793	-253.85
434.92	-290.85
435.047	-18.85
435.174	-150.85
435.301	-5.85
435.428	289.15
435.555	180.15
435.682	-82.85
435.809	-311.85
435.936	129.15
436.063	-249.85
436.19	120.15
436.317	-288.85
436.444	34.15
436.571	-252.85
436.698	-27.85
436.825	89.15
436.952	-22.85
437.079	-56.85
437.206	33.15
437.333	-297.85
437.46	-207.85
437.587	-148.85
437.714	-321.85
437.84	-185.85
437.967	-351.85
438.094	-368.85
438.221	51.15
438.348	-166.85
438.475	8042.15
438.602	-317.85
438.729	-421.85
438.856	-271.85
438.983	-316.85
439.109	-31.85
439.236	62.15
439.363	-393.85
439.49	-252.85
439.617	-131.85
439.744	-266.85
439.871	435.15
439.997	-230.85
440.124	-80.85
440.251	-55.85
440.378	-220.85
440.505	-206.85
440.632	80.15
440.758	166.15
440.885	251.15
441.012	-266.85
441.139	50.15
441.266	-303.85
441.392	-224.85
441.519	-298.85
441.646	-322.85
441.773	-56.85
441.9	248.15
442.026	-202.85
442.153	-107.85
442.28	-54.85
442.407	-278.85
442.533	44.15
442.66	-26.85
442.787	-98.85
442.914	-262.85
443.04	-238.85
443.167	-146.85
443.294	-124.85
443.421	-87.85
443.547	-317.85
443.674	-140.85
443.801	-56.85
443.927	84.15
444.054	392.15
444.181	110.15
444.307	74.15
444.434	-94.85
444.561	-320.85
444.688	-369.85
444.814	16.15
444.941	-206.85
445.068	-301.85
445.194	201.15
445.321	-298.85
445.447	154.15
445.574	-367.85
445.701	-365.85
445.827	-188.85
445.954	-422.85
446.081	-5.85
446.207	-299.85
446.334	-149.85
446.461	-173.85
446.587	-407.85
446.714	16.15
446.84	71.15
446.967	-257.85
447.094	-192.85
447.22	56.15
447.347	-162.85
447.473	-282.85
447.6	-83.85
447.726	-385.85
447.853	-91.85
447.98	-163.85
448.106	-67.85
448.233	-113.85
448.359	-224.85
448.486	-40.85
448.612	-210.85
448.739	-38.85
448.865	67.15
448.992	225.15
449.118	-204.85
449.245	-290.85
449.371	-280.85
449.498	-110.85
449.624	-0.85
449.751	-100.85
449.877	-242.85
450.004	-115.85
450.13	-130.85
450.257	-289.85
450.383	-139.85
450.51	-379.85
450.636	-235.85
450.763	-186.85
450.889	-248.85
451.016	-424.85
451.142	-44.85
451.269	-248.85
451.395	246.15
451.521	-201.85
451.648	-269.85
451.774	-91.85
451.901	-367.85
452.027	-176.85
452.154	60.15
452.28	-187.85
452.406	-261.85
452.533	-225.85
452.659	-333.85
452.785	-206.85
452.912	-309.85
453.038	-333.85
453.165	-37.85
453.291	96.15
453.417	174.15
453.544	-304.85
453.67	-207.85
453.796	91.15
453.923	-359.85
454.049	-203.85
454.175	-241.85
454.302	-244.85
454.428	-43.85
454.554	-112.85
454.681	-283.85
454.807	-277.85
454.933	294.15
455.06	-100.85
455.186	-184.85
455.312	87.15
455.439	54.15
455.565	-355.85
455.691	-323.85
455.817	5.15
455.944	77.15
456.07	-166.85
456.196	-64.85
456.322	-394.85
456.449	-373.85
456.575	-137.85
456.701	-250.85
456.827	-265.85
456.954	-340.85
457.08	-274.85
457.206	-408.85
457.332	-144.85
457.459	-344.85
457.585	-300.85
457.711	-276.85
457.837	-27.85
457.963	-106.85
458.09	-281.85
458.216	-335.85
458.342	-151.85
458.468	-182.85
458.594	-159.85
458.721	-123.85
458.847	-98.85
458.973	-341.85
459.099	-165.85
459.225	-226.85
459.351	-208.85
459.477	-51.85
459.604	-317.85
459.73	-251.85
459.856	-311.85
459.982	-103.85
460.108	-413.85
460.234	-429.85
460.36	-186.85
460.486	-21.85
460.613	-311.85
460.739	71.15
460.865	-228.85
460.991	201.15
461.117	180.15
461.243	-287.85
461.369	-336.85
461.495	-224.85
461.621	-148.85
461.747	-46.85
461.873	-50.85
461.999	-289.85
462.125	-157.85
462.252	49.15
462.378	-94.85
462.504	-52.85
462.63	-82.85
462.756	-354.85
462.882	-205.85
463.008	-196.85
463.134	94.15
463.26	-379.85
463.386	-220.85
463.512	-102.85
463.638	-231.85
463.764	-318.85
463.89	-220.85
464.016	63.15
464.142	-43.85
464.268	-319.85
464.394	-207.85
464.52	-353.85
464.645	-89.85
464.771	29.15
464.897	-266.85
465.023	-229.85
465.149	-123.85
465.275	-360.85
465.401	-280.85
465.527	79.15
465.653	-125.85
465.779	96.15
465.905	-336.85
466.031	-119.85
466.157	-300.85
466.282	-225.85
466.408	-256.85
466.534	-132.85
466.66	-409.85
466.786	-189.85
466.912	-100.85
467.038	-155.85
467.164	-209.85
467.289	-243.85
467.415	-191.85
467.541	-158.85
467.667	-188.85
467.793	-206.85
467.919	-77.85
468.045	133.15
468.17	-287.85
468.296	-177.85
468.422	-214.85
468.548	37.15
468.674	-393.85
468.799	-295.85
468.925	-223.85
469.051	-314.85
469.177	-393.85
469.303	-400.85
469.428	-6.85
469.554	-261.85
469.68	-256.85
469.806	-68.85
469.931	-138.85
470.057	352.15
470.183	-460.85
470.309	-234.85
470.434	147.15
470.56	-194.85
470.686	-118.85
470.812	-170.85
470.937	-305.85
471.063	-270.85
471.189	-78.85
471.315	46.15
471.44	-138.85
471.566	-202.85
471.692	71.15
471.817	-263.85
471.943	-145.85
472.069	-14.85
472.194	-184.85
472.32	-260.85
472.446	-28.85
472.571	-288.85
472.697	-248.85
472.823	-119.85
472.948	-321.85
473.074	-147.85
473.2	-165.85
473.325	-323.85
473.451	-185.85
473.577	-226.85
473.702	-421.85
473.828	-179.85
473.953	-401.85
474.079	-124.85
474.205	-323.85
474.33	-347.85
474.456	-248.85
474.581	210.15
474.707	-238.85
474.833	-259.85
474.958	-36.85
475.084	-16.85
475.209	-227.85
475.335	-269.85
475.46	-65.85
475.586	-182.85
475.712	-60.85
475.837	-224.85
475.963	-226.85
476.088	-384.85
476.214	-289.85
476.339	-247.85
476.465	-251.85
476.59	-377.85
476.716	104.15
476.841	-332.85
476.967	207.15
477.092	-212.85
477.218	-110.85
477.343	-303.85
477.469	253.15
477.594	-261.85
477.72	-329.85
477.845	-117.85
477.971	-224.85
478.096	-108.85
478.222	-236.85
478.347	3328.15
478.472	10.15
478.598	-265.85
478.723	-235.85
478.849	-44.85
478.974	-59.85
479.1	-324.85
479.225	-136.85
479.35	-237.85
479.476	-40.85
479.601	-302.85
479.727	69.15
479.852	-262.85
479.977	-148.85
480.103	-167.85
480.228	188.15
480.354	-201.85
480.479	45.15
480.604	-228.85
480.73	-276.85
480.855	-427.85
480.98	57.15
481.106	-373.85
481.231	-394.85
481.356	-288.85
481.482	-440.85
481.607	-334.85
481.732	-476.85
481.858	-210.85
481.983	-328.85
482.108	-251.85
482.234	-381.85
482.359	-227.85
482.484	93.15
482.61	-301.85
482.735	-135.85
482.86	-382.85
482.985	-194.85
483.111	-182.85
483.236	-60.85
483.361	-224.85
483.486	-307.85
483.612	36.15
483.737	-401.85
483.862	-162.85
483.987	-90.85
484.113	-390.85
484.238	-51.85
484.363	-335.85
484.488	-261.85
484.614	-7.85
484.739	-236.85
484.864	54.15
484.989	450.15
485.114	-77.85
485.24	-191.85
485.365	-255.85
485.49	-415.85
485.615	23.15
485.74	-192.85
485.865	-84.85
485.991	-102.85
486.116	-74.85
486.241	-373.85
486.366	-336.85
486.491	-45.85
486.616	-263.85
486.742	-217.85
486.867	-188.85
486.992	-349.85
487.117	-310.85
487.242	-311.85
487.367	-437.85
487.492	-236.85
487.617	-36.85
487.742	-151.85
487.868	-309.85
487.993	-50.85
488.118	-65.85
488.243	-140.85
488.368	-281.85
488.493	-427.85
488.618	-226.85
488.743	-227.85
488.868	-339.85
488.993	-195.85
489.118	12.15
489.243	-168.85
489.368	-256.85
489.493	26.15
489.618	-147.85
489.743	-318.85
489.868	-157.85
489.993	-264.85
490.118	-406.85
490.243	401.15
490.368	-275.85
490.493	-47.85
490.618	7.15
490.743	-438.85
490.868	-103.85
490.993	-161.85
491.118	-11.85
491.243	-319.85
491.368	-171.85
491.493	-14.85
491.618	-131.85
491.743	-234.85
491.868	-283.85
491.993	-193.85
492.118	-277.85
492.243	-132.85
492.368	-84.85
492.493	-251.85
492.618	130.15
492.743	-237.85
492.867	37.15
492.992	-141.85
493.117	-25.85
493.242	-248.85
493.367	-156.85
493.492	46.15
493.617	-255.85
493.742	70.15
493.867	-228.85
493.991	-406.85
494.116	-145.85
494.241	-116.85
494.366	-206.85
494.491	-65.85
494.616	55.15
494.74	-292.85
494.865	-380.85
494.99	-249.85
495.115	-235.85
495.24	-160.85
495.365	-237.85
495.489	-211.85
495.614	-94.85
495.739	-213.85
495.864	-272.85
495.989	-416.85
496.113	17.15
496.238	-120.85
496.363	-258.85
496.488	-336.85
496.612	14.15
496.737	-262.85
496.862	-189.85
496.987	-259.85
497.111	-322.85
497.236	-328.85
497.361	-280.85
497.486	50.15
497.61	-5.85
497.735	-186.85
497.86	-34.85
497.984	-66.85
498.109	-385.85
498.234	-275.85
498.359	-263.85
498.483	-156.85
498.608	-136.85
498.733	-246.85
498.857	-332.85
498.982	-153.85
499.107	-411.85
499.231	-165.85
499.356	-243.85
499.481	108.15
499.605	-491.85
499.73	-351.85
499.855	12.15
499.979	-301.85
500.104	-194.85
500.228	179.15
500.353	-232.85
500.478	-359.85
500.602	-120.85
500.727	76.15
500.852	-88.85
500.976	-443.85
501.101	-245.85
501.225	142.15
501.35	-306.85
501.474	-304.85
501.599	8.15
501.724	-212.85
501.848	-168.85
501.973	116.15
502.097	-344.85
502.222	-418.85
502.346	-34.85
502.471	-125.85
502.595	-289.85
502.72	-375.85
502.844	-354.85
502.969	-209.85
503.094	120.15
503.218	-383.85
503.343	-264.85
503.467	-296.85
503.592	-240.85
503.716	-225.85
503.841	-100.85
503.965	199.15
504.089	-202.85
504.214	-352.85
504.338	-244.85
504.463	19.15
504.587	-107.85
504.712	-136.85
504.836	-179.85
504.961	258.15
505.085	98.15
505.21	-301.85
505.334	-264.85
505.458	237.15
505.583	-348.85
505.707	-80.85
505.832	-274.85
505.956	-130.85
506.08	-303.85
506.205	-255.85
506.329	88.15
506.454	-370.85
506.578	-136.85
506.702	-313.85
506.827	114.15
506.951	-56.85
507.076	-179.85
507.2	-345.85
507.324	-38.85
507.449	68.15
507.573	-181.85
507.697	-245.85
507.822	-162.85
507.946	-165.85
508.07	-402.85
508.195	-180.85
508.319	-211.85
508.443	-153.85
508.567	-386.85
508.692	-349.85
508.816	-333.85
508.94	-220.85
509.065	-417.85
509.189	-84.85
509.313	-56.85
509.437	7.15
509.562	-225.85
509.686	-139.85
509.81	-241.85
509.935	-84.85
510.059	54.15
510.183	-323.85
510.307	-386.85
510.431	-39.85
510.556	-193.85
510.68	-298.85
510.804	-412.85
510.928	-181.85
511.053	-390.85
511.177	-364.85
511.301	-178.85
511.425	-258.85
511.549	-147.85
511.674	-144.85
511.798	-143.85
511.922	-70.85
512.046	181.15
512.17	-228.85
512.294	-346.85
512.419	-88.85
512.543	-48.85
512.667	-207.85
512.791	-313.85
512.915	-82.85
513.039	-217.85
513.163	-68.85
513.288	93.15
513.412	-228.85
513.536	46.15
513.66	-317.85
513.784	-198.85
513.908	-86.85
514.032	-131.85
514.156	-1.85
514.28	-61.85
514.404	-181.85
514.528	-222.85
514.653	-62.85
514.777	-19.85
514.901	-80.85
515.025	106.15
515.149	-235.85
515.273	-89.85
515.397	-189.85
515.521	-185.85
515.645	-181.85
515.769	-319.85
515.893	-254.85
516.017	-275.85
516.141	-408.85
516.265	-212.85
516.389	-259.85
516.513	-162.85
516.637	-270.85
516.761	-453.85
516.885	-262.85
517.009	-223.85
517.133	-107.85
517.257	-238.85
517.381	-18.85
517.505	-13.85
517.629	98.15
517.753	-185.85
517.877	-363.85
518.001	-253.85
518.125	-228.85
518.248	-70.85
518.372	-148.85
518.496	-380.85
518.62	-106.85
518.744	-157.85
518.868	-127.85
518.992	-134.85
519.116	-328.85
519.24	420.15
519.364	28.15
519.488	-156.85
519.611	-416.85
519.735	-189.85
519.859	-209.85
519.983	-45.85
520.107	-251.85
520.231	20.15
520.355	-129.85
520.478	-295.85
520.602	-314.85
520.726	91.15
520.85	-230.85
520.974	-1.85
521.098	-258.85
521.221	-317.85
521.345	39.15
521.469	-271.85
521.593	-175.85
521.717	42.15
521.84	-163.85
521.964	-280.85
522.088	-255.85
522.212	-225.85
522.335	-381.85
522.459	-276.85
522.583	207.15
522.707	-358.85
522.83	-423.85
522.954	-314.85
523.078	-297.85
523.202	8.15
523.325	-260.85
523.449	-167.85
523.573	-146.85
523.697	-296.85
523.82	-166.85
523.944	-212.85
524.068	-177.85
524.191	-226.85
524.315	-407.85
524.439	-142.85
524.562	-26.85
524.686	-267.85
524.81	-329.85
524.933	-262.85
525.057	-252.85
525.181	-134.85
525.304	-347.85
525.428	76.15
525.552	-369.85
525.675	-151.85
525.799	-298.85
525.923	-141.85
526.046	-73.85
526.17	-399.85
526.293	-340.85
526.417	-142.85
526.541	19.15
526.664	-238.85
526.788	-235.85
526.911	-85.85
527.035	-349.85
527.159	-237.85
527.282	-265.85
527.406	-293.85
527.529	-44.85
527.653	-352.85
527.776	-115.85
527.9	-252.85
528.024	-275.85
528.147	-244.85
528.271	44.15
528.394	17.15
528.518	27.15
528.641	-348.85
528.765	-112.85
528.888	-151.85
529.012	-95.85
529.135	-255.85
529.259	110.15
529.382	-224.85
529.506	-321.85
529.629	-66.85
529.753	-366.85
529.876	91.15
530	20.15
530.123	-135.85
530.247	-322.85
530.37	-260.85
530.493	-139.85
530.617	-296.85
530.74	0.15
530.864	-40.85
530.987	-367.85
531.111	-92.85
531.234	-308.85
531.357	10.15
531.481	20.15
531.604	46.15
531.728	-392.85
531.851	-115.85
531.974	-119.85
532.098	-238.85
532.221	-279.85
532.345	-223.85
532.468	-391.85
532.591	150.15
532.715	-162.85
532.838	-246.85
532.961	-216.85
533.085	-306.85
533.208	-145.85
533.331	-407.85
533.455	-1.85
533.578	-211.85
533.701	-89.85
533.825	38.15
533.948	-270.85
534.071	-219.85
534.195	-47.85
534.318	-320.85
534.441	-281.85
534.564	-61.85
534.688	-261.85
534.811	-5.85
534.934	-198.85
535.058	-112.85
535.181	42.15
535.304	-49.85
535.427	-304.85
535.551	-385.85
535.674	-223.85
535.797	-56.85
535.92	-31.85
536.043	-357.85
536.167	-361.85
536.29	-64.85
536.413	-149.85
536.536	-339.85
536.66	-254.85
536.783	-85.85
536.906	-156.85
537.029	-269.85
537.152	-229.85
537.275	-194.85
537.399	125.15
537.522	-449.85
537.645	-207.85
537.768	-243.85
537.891	-124.85
538.014	-175.85
538.138	-283.85
538.261	-237.85
538.384	-191.85
538.507	-347.85
538.63	-264.85
538.753	147.15
538.876	-113.85
538.999	-306.85
539.123	-98.85
539.246	187.15
539.369	234.15
539.492	-236.85
539.615	-335.85
539.738	184.15
539.861	-268.85
539.984	-174.85
540.107	-150.85
540.23	-264.85
540.353	-321.85
540.476	-460.85
540.599	-59.85
540.722	-352.85
540.846	-123.85
540.969	-413.85
541.092	-134.85
541.215	-334.85
541.338	-139.85
541.461	-365.85
541.584	-188.85
541.707	-164.85
541.83	-311.85
541.953	-119.85
542.076	-117.85
542.199	-144.85
542.322	71.15
542.445	141.15
542.567	-235.85
542.69	-125.85
542.813	-245.85
542.936	-97.85
543.059	-160.85
543.182	232.15
543.305	42.15
543.428	-132.85
543.551	-217.85
543.674	96.15
543.797	-64.85
543.92	-197.85
544.043	286.15
544.166	-281.85
544.288	-216.85
544.411	-85.85
544.534	-322.85
544.657	-155.85
544.78	-245.85
544.903	-105.85
545.026	-195.85
545.149	-327.85
545.271	-338.85
545.394	-243.85
545.517	-394.85
545.64	391.15
545.763	-218.85
545.886	-281.85
546.008	-101.85
546.131	-6.85
546.254	-201.85
546.377	-387.85
546.5	-48.85
546.623	-64.85
546.745	-335.85
546.868	-211.85
546.991	37.15
547.114	-142.85
547.236	-202.85
547.359	-282.85
547.482	-110.85
547.605	-270.85
547.728	-242.85
547.85	-314.85
547.973	-272.85
548.096	-215.85
548.219	-81.85
548.341	-229.85
548.464	-356.85
548.587	-159.85
548.709	-202.85
548.832	-139.85
548.955	249.15
549.078	13.15
549.2	-267.85
549.323	-222.85
549.446	182.15
549.568	-147.85
549.691	-85.85
549.814	-51.85
549.936	-268.85
550.059	-227.85
550.182	-322.85
550.304	-400.85
550.427	-165.85
550.55	-241.85
550.672	-295.85
550.795	284.15
550.917	-283.85
551.04	-169.85
551.163	-88.85
551.285	58.15
551.408	8.15
551.531	356.15
551.653	-352.85
551.776	-85.85
551.898	-96.85
552.021	-119.85
552.143	-198.85
552.266	-197.85
552.389	-159.85
552.511	-365.85
552.634	-370.85
552.756	-325.85
552.879	199.15
553.001	27.15
553.124	-402.85
553.246	-292.85
553.369	71.15
553.492	-177.85
553.614	27.15
553.737	-469.85
553.859	-30.85
553.982	-3.85
554.104	-140.85
554.227	-334.85
554.349	-206.85
554.472	-211.85
554.594	-475.85
554.716	20.15
554.839	-17.85
554.961	-96.85
555.084	-343.85
555.206	-133.85
555.329	-356.85
555.451	-347.85
555.574	-92.85
555.696	-294.85
555.819	-156.85
555.941	-187.85
556.063	-16.85
556.186	-221.85
556.308	-93.85
556.431	219.15
556.553	-12.85
556.675	-286.85
556.798	-199.85
556.92	-29.85
557.043	-270.85
557.165	-360.85
557.287	21.15
557.41	-169.85
557.532	-118.85
557.654	-233.85
557.777	39.15
557.899	-151.85
558.021	-212.85
558.144	59.15
558.266	72.15
558.388	257.15
558.511	-211.85
558.633	-167.85
558.755	-263.85
558.878	-273.85
559	-3.85
559.122	-426.85
559.244	-256.85
559.367	-191.85
559.489	7.15
559.611	142.15
559.734	-166.85
559.856	-115.85
559.978	-125.85
560.1	-173.85
560.223	-173.85
560.345	65.15
560.467	-352.85
560.589	-236.85
560.712	-212.85
560.834	202.15
560.956	-341.85
561.078	-202.85
561.2	-121.85
561.323	85.15
561.445	-343.85
561.567	-280.85
561.689	-320.85
561.811	-44.85
561.934	-206.85
562.056	-197.85
562.178	-94.85
562.3	-228.85
562.422	-84.85
562.544	-178.85
562.666	51.15
562.789	-86.85
562.911	-151.85
563.033	-9.85
563.155	-7.85
563.277	-255.85
563.399	-428.85
563.521	-209.85
563.643	-287.85
563.766	-135.85
563.888	43.15
564.01	-123.85
564.132	-247.85
564.254	-336.85
564.376	52.15
564.498	-137.85
564.62	101.15
564.742	-125.85
564.864	-405.85
564.986	-123.85
565.108	286.15
565.23	-260.85
565.352	-28.85
565.474	-94.85
565.597	134.15
565.719	127.15
565.841	-355.85
565.963	-113.85
566.085	-118.85
566.207	-152.85
566.329	33.15
566.451	42.15
566.573	-192.85
566.695	-207.85
566.817	179.15
566.938	-343.85
567.06	-185.85
567.182	-115.85
567.304	-222.85
567.426	-348.85
567.548	31.15
567.67	-70.85
567.792	-182.85
567.914	-259.85
568.036	-148.85
568.158	-144.85
568.28	-295.85
568.402	-72.85
568.524	-187.85
568.646	-295.85
568.767	-234.85
568.889	20.15
569.011	-147.85
569.133	-264.85
569.255	-372.85
569.377	-324.85
569.499	-100.85
569.621	-232.85
569.742	200.15
569.864	8.15
569.986	307.15
570.108	3.15
570.23	-314.85
570.352	81.15
570.473	-91.85
570.595	-205.85
570.717	-358.85
570.839	-155.85
570.961	-17.85
571.082	-184.85
571.204	-293.85
571.326	-270.85
571.448	-17.85
571.57	22.15
571.691	-116.85
571.813	-116.85
571.935	32.15
572.057	-159.85
572.178	-283.85
572.3	69.15
572.422	127.15
572.544	205.15
572.665	-269.85
572.787	-310.85
572.909	90.15
573.031	-47.85
573.152	-348.85
573.274	-35.85
573.396	17.15
573.517	-47.85
573.639	-435.85
573.761	-279.85
573.882	-138.85
574.004	8.15
574.126	-302.85
574.247	-13.85
574.369	-5.85
574.491	-160.85
574.612	-347.85
574.734	-142.85
574.856	-110.85
574.977	-15.85
575.099	-128.85
575.221	-146.85
575.342	-149.85
575.464	-109.85
575.585	-82.85
575.707	-307.85
575.829	91.15
575.95	67.15
576.072	-235.85
576.193	-292.85
576.315	-193.85
576.437	-163.85
576.558	-176.85
576.68	-180.85
576.801	215.15
576.923	-343.85
577.044	70.15
577.166	-400.85
577.287	-104.85
577.409	-190.85
577.531	-217.85
577.652	-55.85
577.774	-365.85
577.895	-139.85
578.017	-290.85
578.138	-263.85
578.26	-153.85
578.381	-21.85
578.503	-303.85
578.624	-247.85
578.746	-331.85
578.867	-210.85
578.988	-104.85
579.11	136.15
579.231	-102.85
579.353	-205.85
579.474	-149.85
579.596	-220.85
579.717	18.15
579.839	-138.85
579.96	-449.85
580.081	-68.85
580.203	-193.85
580.324	-98.85
580.446	-44.85
580.567	-167.85
580.688	210.15
580.81	-284.85
580.931	-215.85
581.053	-373.85
581.174	-112.85
581.295	-236.85
581.417	-67.85
581.538	-31.85
581.659	-58.85
581.781	-138.85
581.902	-241.85
582.024	-320.85
582.145	-305.85
582.266	-279.85
582.388	-176.85
582.509	-333.85
582.63	-129.85
582.751	-225.85
582.873	-232.85
582.994	-235.85
583.115	-165.85
583.237	-79.85
583.358	-263.85
583.479	-422.85
583.6	20.15
583.722	-174.85
583.843	-324.85
583.964	50.15
584.086	-223.85
584.207	-50.85
584.328	-312.85
584.449	-88.85
584.57	-91.85
584.692	-152.85
584.813	864.15
584.934	-131.85
585.055	-313.85
585.177	-24.85
585.298	-121.85
585.419	-321.85
585.54	170.15
585.661	-56.85
585.783	-95.85
585.904	-277.85
586.025	66.15
586.146	-281.85
586.267	-256.85
586.388	-207.85
586.51	253.15
586.631	-297.85
586.752	-336.85
586.873	-228.85
586.994	-336.85
587.115	-308.85
587.236	-274.85
587.357	-374.85
587.479	-282.85
587.6	51.15
587.721	-239.85
587.842	-289.85
587.963	151.15
588.084	74.15
588.205	-316.85
588.326	-243.85
588.447	-128.85
588.568	-181.85
588.689	-132.85
588.81	-73.85
588.931	-160.85
589.052	-243.85
589.174	-290.85
589.295	-86.85
589.416	-97.85
589.537	47.15
589.658	-249.85
589.779	-375.85
589.9	45.15
590.021	-225.85
590.142	-254.85
590.263	-388.85
590.384	-130.85
590.505	202.15
590.626	-308.85
590.747	-134.85
590.867	-58.85
590.988	-52.85
591.109	-203.85
591.23	46.15
591.351	12.15
591.472	-172.85
591.593	-235.85
591.714	-144.85
591.835	-241.85
591.956	-211.85
592.077	-383.85
592.198	-142.85
592.319	-101.85
592.44	-18.85
592.56	-243.85
592.681	-392.85
592.802	-72.85
592.923	-185.85
593.044	-279.85
593.165	-360.85
593.286	-22.85
593.407	-274.85
593.527	26.15
593.648	-305.85
593.769	-69.85
593.89	78.15
594.011	-182.85
594.132	-244.85
594.252	-114.85
594.373	-283.85
594.494	-396.85
594.615	-203.85
594.736	-222.85
594.856	66.15
594.977	-339.85
595.098	-99.85
595.219	-313.85
595.34	-95.85
595.46	-325.85
595.581	196.15
595.702	-140.85
595.823	-317.85
595.943	-96.85
596.064	-144.85
596.185	95.15
596.306	-369.85
596.426	-281.85
596.547	-345.85
596.668	-66.85
596.788	-94.85
596.909	-168.85
597.03	-115.85
597.151	-132.85
597.271	-245.85
597.392	-185.85
597.513	-107.85
597.633	-3.85
597.754	-107.85
597.875	-204.85
597.995	97.15
598.116	-100.85
598.237	-184.85
598.357	-291.85
598.478	-275.85
598.599	180.15
598.719	-194.85
598.84	-356.85
598.96	-275.85
599.081	-135.85
599.202	-157.85
599.322	-305.85
599.443	-306.85
599.563	-46.85
599.684	27.15
599.805	-238.85
599.925	-338.85
600.046	218.15
600.166	-199.85
600.287	-89.85
600.407	-146.85
600.528	66.15
600.649	-66.85
600.769	-145.85
600.89	-355.85
601.01	-35.85
601.131	-227.85
601.251	116.15
601.372	-111.85
601.492	-211.85
601.613	-265.85
601.733	-264.85
601.854	225.15
601.974	335.15
602.095	151.15
602.215	-357.85
602.336	-349.85
602.456	240.15
602.577	-229.85
602.697	719.15
602.817	0.15
602.938	-135.85
603.058	-46.85
603.179	-323.85
603.299	-316.85
603.42	-334.85
603.54	-82.85
603.66	-345.85
603.781	-99.85
603.901	-223.85
604.022	112.15
604.142	-182.85
604.262	-156.85
604.383	-242.85
604.503	125.15
604.624	-286.85
604.744	-118.85
604.864	-23.85
604.985	-216.85
605.105	-131.85
605.225	-115.85
605.346	-138.85
605.466	37.15
605.586	178.15
605.707	314.15
605.827	-308.85
605.947	-187.85
606.068	-215.85
606.188	-201.85
606.308	-235.85
606.429	42.15
606.549	-234.85
606.669	-354.85
606.789	-275.85
606.91	-62.85
607.03	-309.85
607.15	-262.85
607.27	-95.85
607.391	17.15
607.511	-253.85
607.631	-289.85
607.751	134.15
607.872	-26.85
607.992	-325.85
608.112	10.15
608.232	-239.85
608.353	-280.85
608.473	-254.85
608.593	105.15
608.713	313.15
608.833	-123.85
608.954	-286.85
609.074	-205.85
609.194	-295.85
609.314	206.15
609.434	-7.85
609.554	-175.85
609.675	-68.85
609.795	-248.85
609.915	-327.85
610.035	263.15
610.155	-163.85
610.275	-206.85
610.395	-27.85
610.516	-343.85
610.636	-98.85
610.756	-53.85
610.876	-51.85
610.996	-293.85
611.116	171.15
611.236	-354.85
611.356	-260.85
611.476	-149.85
611.596	-74.85
611.716	118.15
611.836	-327.85
611.957	-335.85
612.077	-129.85
612.197	-74.85
612.317	-287.85
612.437	64.15
612.557	71.15
612.677	-145.85
612.797	-146.85
612.917	-320.85
613.037	-37.85
613.157	-99.85
613.277	-129.85
613.397	111.15
613.517	143.15
613.637	-232.85
613.757	-182.85
613.877	-277.85
613.997	-74.85
614.117	-227.85
614.237	-216.85
614.356	-96.85
614.476	58.15
614.596	-1.85
614.716	-204.85
614.836	-164.85
614.956	-22.85
615.076	-92.85
615.196	-313.85
615.316	-107.85
615.436	-39.85
615.556	152.15
615.676	172.15
615.795	-53.85
615.915	-93.85
616.035	-235.85
616.155	-189.85
616.275	-264.85
616.395	-215.85
616.515	-0.85
616.635	-431.85
616.754	-426.85
616.874	-19.85
616.994	-127.85
617.114	221.15
617.234	43.15
617.354	29.15
617.473	343.15
617.593	-214.85
617.713	-142.85
617.833	-52.85
617.953	-47.85
618.072	-457.85
618.192	-259.85
618.312	100.15
618.432	76.15
618.551	-280.85
618.671	-262.85
618.791	2.15
618.911	-109.85
619.03	-196.85
619.15	-151.85
619.27	-162.85
619.39	-219.85
619.509	-170.85
619.629	-179.85
619.749	-246.85
619.868	-107.85
619.988	-327.85
620.108	-254.85
620.228	730.15
620.347	-64.85
620.467	-271.85
620.587	-306.85
620.706	78.15
620.826	-279.85
620.946	-278.85
621.065	12.15
621.185	283.15
621.305	-209.85
621.424	-198.85
621.544	-420.85
621.663	-51.85
621.783	-207.85
621.903	224.15
622.022	-294.85
622.142	-112.85
622.261	173.15
622.381	-140.85
622.501	-90.85
622.62	-199.85
622.74	-93.85
622.859	-202.85
622.979	43.15
623.099	-193.85
623.218	-43.85
623.338	142.15
623.457	-51.85
623.577	-187.85
623.696	-41.85
623.816	-387.85
623.935	-287.85
624.055	-216.85
624.174	-129.85
624.294	-179.85
624.413	-344.85
624.533	-67.85
624.652	134.15
624.772	-279.85
624.891	-404.85
625.011	13.15
625.13	-188.85
625.25	-368.85
625.369	-257.85
625.489	-200.85
625.608	-234.85
625.728	-146.85
625.847	-140.85
625.966	-262.85
626.086	-256.85
626.205	-375.85
626.325	-82.85
626.444	-120.85
626.564	182.15
626.683	-0.85
626.802	24.15
626.922	96.15
627.041	-8.85
627.161	-161.85
627.28	-0.85
627.399	14.15
627.519	-90.85
627.638	-397.85
627.757	-284.85
627.877	-144.85
627.996	-147.85
628.115	-50.85
628.235	-20.85
628.354	-300.85
628.473	-108.85
628.593	103.15
628.712	-122.85
628.831	-109.85
628.951	-332.85
629.07	57.15
629.189	-114.85
629.309	-157.85
629.428	214.15
629.547	-334.85
629.666	-65.85
629.786	-131.85
629.905	-272.85
630.024	-34.85
630.143	-100.85
630.263	-145.85
630.382	221.15
630.501	-211.85
630.62	-243.85
630.74	-301.85
630.859	85.15
630.978	-189.85
631.097	-335.85
631.216	-268.85
631.336	180.15
631.455	-272.85
631.574	-229.85
631.693	-46.85
631.812	-164.85
631.932	-409.85
632.051	98.15
632.17	361.15
632.289	21.15
632.408	-261.85
632.527	-169.85
632.646	-100.85
632.766	-228.85
632.885	141.15
633.004	-354.85
633.123	-129.85
633.242	-232.85
633.361	643.15
633.48	-289.85
633.599	-219.85
633.718	44.15
633.838	-103.85
633.957	-359.85
634.076	-76.85
634.195	-170.85
634.314	-32.85
634.433	7.15
634.552	-205.85
634.671	-83.85
634.79	216.15
634.909	20.15
635.028	-32.85
635.147	3.15
635.266	-293.85
635.385	-117.85
635.504	-293.85
635.623	-32.85
635.742	-360.85
635.861	-351.85
635.98	-68.85
636.099	-204.85
636.218	-144.85
636.337	-126.85
636.456	282.15
636.575	0.15
636.694	-128.85
636.813	-372.85
636.932	-278.85
637.051	-105.85
637.17	-399.85
637.289	-121.85
637.408	-331.85
637.526	-92.85
637.645	-449.85
637.764	-362.85
637.883	-196.85
638.002	58.15
638.121	382.15
638.24	-282.85
638.359	51.15
638.478	-188.85
638.597	-321.85
638.715	390.15
638.834	-107.85
638.953	30.15
639.072	-349.85
639.191	-374.85
639.31	46.15
639.428	-78.85
639.547	-107.85
639.666	-23.85
639.785	-11.85
639.904	-71.85
640.023	-356.85
640.141	-249.85
640.26	-143.85
640.379	7.15
640.498	-399.85
640.616	-100.85
640.735	-112.85
640.854	74.15
640.973	-324.85
641.092	-25.85
641.21	-56.85
641.329	-143.85
641.448	-12.85
641.567	205.15
641.685	-123.85
641.804	-146.85
641.923	-145.85
642.041	-291.85
642.16	-148.85
642.279	98.15
642.398	-223.85
642.516	-289.85
642.635	140.15
642.754	-180.85
642.872	32.15
642.991	48.15
643.11	-224.85
643.228	-311.85
643.347	-365.85
643.466	-353.85
643.584	36.15
643.703	270.15
643.821	-162.85
643.94	-104.85
644.059	-10.85
644.177	82.15
644.296	-292.85
644.415	-253.85
644.533	-108.85
644.652	8.15
644.77	-358.85
644.889	-313.85
645.008	50.15
645.126	-228.85
645.245	-6.85
645.363	42.15
645.482	-74.85
645.6	-151.85
645.719	-214.85
645.837	-223.85
645.956	-50.85
646.074	-281.85
646.193	-283.85
646.312	-21.85
646.43	179.15
646.549	239.15
646.667	-445.85
646.786	-313.85
646.904	39.15
647.023	-5.85
647.141	-341.85
647.26	-16.85
647.378	437.15
647.496	-142.85
647.615	-67.85
647.733	-87.85
647.852	249.15
647.97	-186.85
648.089	2.15
648.207	-34.85
648.326	96.15
648.444	-139.85
648.562	-172.85
648.681	-93.85
648.799	-150.85
648.918	-60.85
649.036	-140.85
649.154	-238.85
649.273	52.15
649.391	-150.85
649.51	-289.85
649.628	-327.85
649.746	186.15
649.865	-183.85
649.983	-323.85
650.101	-128.85
650.22	-123.85
650.338	-224.85
650.456	-211.85
650.575	-264.85
650.693	-277.85
650.811	6.15
650.93	-360.85
651.048	1083.15
651.166	320.15
651.285	-131.85
651.403	-30.85
651.521	-128.85
651.639	-115.85
651.758	-111.85
651.876	205.15
651.994	-308.85
652.112	136.15
652.231	-95.85
652.349	-269.85
652.467	-489.85
652.585	-129.85
652.704	26.15
652.822	-410.85
652.94	-376.85
653.058	-20.85
653.176	-199.85
653.295	-171.85
653.413	-44.85
653.531	-214.85
653.649	-136.85
653.767	-286.85
653.886	-351.85
654.004	-209.85
654.122	175.15
654.24	-372.85
654.358	-309.85
654.476	-123.85
654.594	234.15
654.713	-230.85
654.831	-401.85
654.949	-150.85
655.067	-29.85
655.185	-350.85
655.303	-237.85
655.421	-147.85
655.539	127.15
655.658	-169.85
655.776	-231.85
655.894	25.15
656.012	176.15
656.13	-379.85
656.248	-235.85
656.366	-234.85
656.484	-173.85
656.602	-323.85
656.72	-286.85
656.838	-44.85
656.956	-140.85
657.074	-52.85
657.192	-83.85
657.31	-236.85
657.428	-187.85
657.546	-110.85
657.664	-162.85
657.782	-118.85
657.9	96.15
658.018	-229.85
658.136	-171.85
658.254	49.15
658.372	143.15
658.49	-330.85
658.608	-324.85
658.726	-6.85
658.844	6.15
658.962	-256.85
659.08	-363.85
659.198	-28.85
659.316	-92.85
