Data from HR4D30811__6__00006.txt Node

Date: Fri Jan 26 16:32:14 MST 2024
User: Brock
Spectrometer: HR4D3081
Trigger mode: 4
Integration Time (sec): 8.000000E0
Scans to average: 1
Electric dark correction enabled: true
Nonlinearity correction enabled: false
Boxcar width: 0
XAxis mode: Wavelengths
Number of Pixels in Spectrum: 3648
>>>>>Begin Spectral Data<<<<<
197.25	-1222.23
197.385	-1222.23
197.519	-1222.23
197.653	-1201.23
197.787	163.77
197.922	-131.23
198.056	61.77
198.19	1.77
198.324	22.77
198.459	-216.23
198.593	420.77
198.727	-36.23
198.861	-109.23
198.996	221.77
199.13	-260.23
199.264	-207.23
199.398	-46.23
199.533	277.77
199.667	141.77
199.801	-57.23
199.935	-286.23
200.07	-26.23
200.204	-9.23
200.338	-181.23
200.472	-182.23
200.606	-350.23
200.741	-166.23
200.875	-135.23
201.009	-102.23
201.143	-202.23
201.277	99.77
201.412	105.77
201.546	234.77
201.68	172.77
201.814	-159.23
201.948	65.77
202.082	-68.23
202.217	-315.23
202.351	-127.23
202.485	-43.23
202.619	-222.23
202.753	-328.23
202.887	289.77
203.021	115.77
203.156	219.77
203.29	87.77
203.424	-33.23
203.558	-188.23
203.692	-86.23
203.826	-297.23
203.96	-83.23
204.094	134.77
204.229	-150.23
204.363	-192.23
204.497	-336.23
204.631	-283.23
204.765	-186.23
204.899	-145.23
205.033	-127.23
205.167	-246.23
205.301	29.77
205.435	-318.23
205.569	-90.23
205.704	-23.23
205.838	-310.23
205.972	-150.23
206.106	534.77
206.24	-117.23
206.374	-209.23
206.508	14.77
206.642	45.77
206.776	-109.23
206.91	198.77
207.044	-1.23
207.178	127.77
207.312	3.77
207.446	-140.23
207.58	-165.23
207.714	-263.23
207.848	184.77
207.982	-365.23
208.116	26.77
208.25	-256.23
208.384	-156.23
208.518	-160.23
208.652	-229.23
208.786	-251.23
208.92	258.77
209.054	-36.23
209.188	-250.23
209.322	-114.23
209.456	-128.23
209.59	-257.23
209.724	-66.23
209.858	-39.23
209.992	-137.23
210.126	-163.23
210.26	-165.23
210.394	-73.23
210.528	-30.23
210.662	-197.23
210.796	-157.23
210.929	140.77
211.063	-15.23
211.197	-57.23
211.331	-44.23
211.465	-198.23
211.599	60.77
211.733	111.77
211.867	-178.23
212.001	-183.23
212.135	-46.23
212.269	-250.23
212.402	-202.23
212.536	98.77
212.67	-125.23
212.804	-261.23
212.938	67.77
213.072	-190.23
213.206	-77.23
213.34	-186.23
213.473	-142.23
213.607	114.77
213.741	-270.23
213.875	-273.23
214.009	-216.23
214.143	-143.23
214.277	-134.23
214.41	-230.23
214.544	220.77
214.678	114.77
214.812	272.77
214.946	-253.23
215.08	-169.23
215.213	-204.23
215.347	-111.23
215.481	-90.23
215.615	-326.23
215.749	30.77
215.882	-208.23
216.016	-299.23
216.15	86.77
216.284	175.77
216.418	19.77
216.551	105.77
216.685	5.77
216.819	-262.23
216.953	-177.23
217.086	287.77
217.22	-151.23
217.354	0.77
217.488	79.77
217.621	108.77
217.755	-28.23
217.889	-140.23
218.023	-67.23
218.156	99.77
218.29	89.77
218.424	157.77
218.558	-246.23
218.691	-374.23
218.825	-112.23
218.959	414.77
219.092	-125.23
219.226	-331.23
219.36	-279.23
219.494	-37.23
219.627	-163.23
219.761	-188.23
219.895	-83.23
220.028	-296.23
220.162	550.77
220.296	119.77
220.429	7.77
220.563	-53.23
220.697	-42.23
220.83	-227.23
220.964	-146.23
221.098	-289.23
221.231	-262.23
221.365	47.77
221.499	-196.23
221.632	-220.23
221.766	45.77
221.9	-100.23
222.033	53.77
222.167	95.77
222.3	-203.23
222.434	-48.23
222.568	249.77
222.701	-183.23
222.835	-138.23
222.968	-236.23
223.102	-214.23
223.236	-258.23
223.369	18.77
223.503	-31.23
223.636	-228.23
223.77	-161.23
223.904	-6.23
224.037	-194.23
224.171	88.77
224.304	39.77
224.438	-201.23
224.571	-124.23
224.705	198.77
224.839	-58.23
224.972	-337.23
225.106	-23.23
225.239	-100.23
225.373	68.77
225.506	-54.23
225.64	47.77
225.773	-140.23
225.907	-188.23
226.04	-308.23
226.174	-119.23
226.307	-45.23
226.441	-138.23
226.575	4.77
226.708	146.77
226.842	-108.23
226.975	-160.23
227.109	-225.23
227.242	19.77
227.375	32.77
227.509	-71.23
227.642	-158.23
227.776	43.77
227.909	45.77
228.043	-203.23
228.176	181.77
228.31	-266.23
228.443	316.77
228.577	-75.23
228.71	-129.23
228.844	-42.23
228.977	-257.23
229.111	-171.23
229.244	54.77
229.377	-307.23
229.511	-39.23
229.644	-185.23
229.778	-152.23
229.911	-175.23
230.044	-138.23
230.178	-49.23
230.311	-205.23
230.445	18.77
230.578	-188.23
230.711	-91.23
230.845	328.77
230.978	60.77
231.112	-224.23
231.245	-234.23
231.378	-253.23
231.512	33.77
231.645	-406.23
231.779	-317.23
231.912	-35.23
232.045	73.77
232.179	-198.23
232.312	-133.23
232.445	76.77
232.579	244.77
232.712	134.77
232.845	-174.23
232.979	-363.23
233.112	61.77
233.245	-126.23
233.379	-284.23
233.512	-36.23
233.645	-250.23
233.779	-243.23
233.912	48.77
234.045	-152.23
234.179	36.77
234.312	-150.23
234.445	30.77
234.578	-11.23
234.712	13.77
234.845	36.77
234.978	-136.23
235.112	-80.23
235.245	100.77
235.378	-187.23
235.511	-2.23
235.645	45.77
235.778	-11.23
235.911	-179.23
236.044	-305.23
236.178	312.77
236.311	-225.23
236.444	-240.23
236.577	-224.23
236.711	-62.23
236.844	-425.23
236.977	-149.23
237.11	-199.23
237.243	13.77
237.377	-282.23
237.51	-242.23
237.643	968.77
237.776	-123.23
237.909	-154.23
238.043	-14.23
238.176	-218.23
238.309	-75.23
238.442	-305.23
238.575	-66.23
238.709	449.77
238.842	11.77
238.975	-40.23
239.108	166.77
239.241	-279.23
239.374	-234.23
239.508	-220.23
239.641	200.77
239.774	326.77
239.907	-83.23
240.04	-280.23
240.173	30.77
240.306	237.77
240.44	-145.23
240.573	165.77
240.706	-131.23
240.839	36.77
240.972	-88.23
241.105	-48.23
241.238	6.77
241.371	-33.23
241.504	-33.23
241.638	-165.23
241.771	-32.23
241.904	-144.23
242.037	22.77
242.17	-218.23
242.303	-308.23
242.436	-84.23
242.569	-126.23
242.702	-219.23
242.835	-191.23
242.968	-15.23
243.101	-136.23
243.234	-234.23
243.367	-279.23
243.5	-98.23
243.634	-187.23
243.767	-321.23
243.9	-239.23
244.033	-222.23
244.166	89.77
244.299	-350.23
244.432	-259.23
244.565	12.77
244.698	-336.23
244.831	-162.23
244.964	-253.23
245.097	-183.23
245.23	-6.23
245.363	171.77
245.496	-265.23
245.629	-145.23
245.762	444.77
245.895	-263.23
246.028	-212.23
246.161	440.77
246.294	46.77
246.427	-222.23
246.559	93.77
246.692	-43.23
246.825	-153.23
246.958	-187.23
247.091	-258.23
247.224	-308.23
247.357	-192.23
247.49	136.77
247.623	-188.23
247.756	-252.23
247.889	285.77
248.022	-93.23
248.155	-277.23
248.288	-92.23
248.421	-238.23
248.553	77.77
248.686	-197.23
248.819	124.77
248.952	-246.23
249.085	176.77
249.218	-49.23
249.351	-50.23
249.484	143.77
249.617	-63.23
249.749	-271.23
249.882	-238.23
250.015	-229.23
250.148	-171.23
250.281	-265.23
250.414	-176.23
250.547	-138.23
250.679	222.77
250.812	-115.23
250.945	37.77
251.078	-249.23
251.211	-161.23
251.344	-274.23
251.476	-172.23
251.609	-7.23
251.742	-274.23
251.875	-86.23
252.008	-193.23
252.14	-334.23
252.273	-106.23
252.406	176.77
252.539	-4.23
252.672	-64.23
252.804	113.77
252.937	-279.23
253.07	2.77
253.203	-116.23
253.335	114.77
253.468	-362.23
253.601	-161.23
253.734	-56.23
253.866	-132.23
253.999	377.77
254.132	-8.23
254.265	-125.23
254.397	-179.23
254.53	-164.23
254.663	28.77
254.796	-178.23
254.928	-278.23
255.061	-202.23
255.194	-69.23
255.327	-299.23
255.459	-38.23
255.592	-285.23
255.725	163.77
255.857	-197.23
255.99	3.77
256.123	-237.23
256.255	-248.23
256.388	-78.23
256.521	-269.23
256.653	-321.23
256.786	-211.23
256.919	-156.23
257.051	-262.23
257.184	-20.23
257.317	-213.23
257.449	-261.23
257.582	-82.23
257.715	-184.23
257.847	-236.23
257.98	-87.23
258.113	-187.23
258.245	-132.23
258.378	-388.23
258.51	-278.23
258.643	-255.23
258.776	49.77
258.908	-272.23
259.041	-70.23
259.174	-184.23
259.306	-174.23
259.439	-282.23
259.571	-222.23
259.704	-87.23
259.837	154.77
259.969	-230.23
260.102	-250.23
260.234	227.77
260.367	79.77
260.499	-238.23
260.632	-139.23
260.765	-199.23
260.897	-218.23
261.03	-246.23
261.162	-68.23
261.295	-43.23
261.427	101.77
261.56	-71.23
261.692	-250.23
261.825	-74.23
261.957	93.77
262.09	98.77
262.222	20.77
262.355	-249.23
262.487	-117.23
262.62	-245.23
262.752	-87.23
262.885	-134.23
263.017	-0.23
263.15	-205.23
263.282	-60.23
263.415	-233.23
263.547	-55.23
263.68	204.77
263.812	-300.23
263.945	-122.23
264.077	-235.23
264.21	160.77
264.342	-295.23
264.475	-247.23
264.607	150.77
264.74	-390.23
264.872	-92.23
265.004	118.77
265.137	58.77
265.269	361.77
265.402	-261.23
265.534	-169.23
265.667	-146.23
265.799	91.77
265.931	-111.23
266.064	3.77
266.196	-118.23
266.329	-194.23
266.461	-187.23
266.593	33.77
266.726	-316.23
266.858	-180.23
266.99	-103.23
267.123	-160.23
267.255	-47.23
267.388	-133.23
267.52	-229.23
267.652	-179.23
267.785	130.77
267.917	17.77
268.049	-150.23
268.182	411.77
268.314	49.77
268.446	-339.23
268.579	-182.23
268.711	222.77
268.843	-222.23
268.976	-84.23
269.108	367.77
269.24	150.77
269.373	-42.23
269.505	-160.23
269.637	-116.23
269.77	-205.23
269.902	180.77
270.034	-256.23
270.167	61.77
270.299	-38.23
270.431	-1.23
270.563	-183.23
270.696	-26.23
270.828	-122.23
270.96	-83.23
271.092	9.77
271.225	-238.23
271.357	-104.23
271.489	-181.23
271.621	-257.23
271.754	540.77
271.886	-226.23
272.018	-190.23
272.15	291.77
272.283	-267.23
272.415	-142.23
272.547	66.77
272.679	69.77
272.811	-130.23
272.944	-116.23
273.076	-364.23
273.208	-40.23
273.34	-92.23
273.473	-130.23
273.605	65.77
273.737	-264.23
273.869	-43.23
274.001	-409.23
274.133	21.77
274.266	-213.23
274.398	1470.77
274.53	31.77
274.662	135.77
274.794	13.77
274.926	53.77
275.059	-193.23
275.191	-9.23
275.323	-240.23
275.455	118.77
275.587	-237.23
275.719	-160.23
275.851	-114.23
275.983	17.77
276.116	-15.23
276.248	104.77
276.38	-271.23
276.512	-24.23
276.644	-135.23
276.776	-226.23
276.908	-56.23
277.04	-96.23
277.172	54.77
277.304	-212.23
277.437	2.77
277.569	-202.23
277.701	-233.23
277.833	-97.23
277.965	-169.23
278.097	51.77
278.229	-217.23
278.361	-172.23
278.493	105.77
278.625	209.77
278.757	12.77
278.889	-216.23
279.021	-184.23
279.153	472.77
279.285	-255.23
279.417	565.77
279.549	31.77
279.681	-114.23
279.813	-184.23
279.945	48.77
280.077	-241.23
280.209	1090.77
280.341	-265.23
280.473	-151.23
280.605	79.77
280.737	-27.23
280.869	203.77
281.001	-69.23
281.133	-340.23
281.265	-13.23
281.397	-153.23
281.529	285.77
281.661	-283.23
281.793	-337.23
281.925	-231.23
282.057	-123.23
282.189	-148.23
282.321	-13.23
282.453	17.77
282.585	-234.23
282.717	149.77
282.849	-68.23
282.98	-175.23
283.112	-219.23
283.244	-12.23
283.376	-232.23
283.508	-339.23
283.64	-253.23
283.772	119.77
283.904	87.77
284.036	-307.23
284.168	106.77
284.299	-44.23
284.431	-24.23
284.563	-126.23
284.695	-131.23
284.827	-266.23
284.959	-13.23
285.091	-245.23
285.222	-286.23
285.354	-183.23
285.486	-116.23
285.618	-269.23
285.75	-128.23
285.882	180.77
286.013	50.77
286.145	-63.23
286.277	-3.23
286.409	98.77
286.541	52.77
286.673	-239.23
286.804	-208.23
286.936	-58.23
287.068	-208.23
287.2	-241.23
287.332	295.77
287.463	-299.23
287.595	-62.23
287.727	405.77
287.859	-151.23
287.99	-171.23
288.122	-192.23
288.254	34.77
288.386	-166.23
288.517	-275.23
288.649	-144.23
288.781	-16.23
288.913	-43.23
289.044	-283.23
289.176	179.77
289.308	-166.23
289.44	-344.23
289.571	-198.23
289.703	-273.23
289.835	69.77
289.967	-262.23
290.098	-306.23
290.23	-309.23
290.362	95.77
290.493	-318.23
290.625	-221.23
290.757	-153.23
290.888	-142.23
291.02	-46.23
291.152	-69.23
291.283	29.77
291.415	-131.23
291.547	-273.23
291.678	-250.23
291.81	-51.23
291.942	266.77
292.073	-36.23
292.205	-281.23
292.337	67.77
292.468	491.77
292.6	-186.23
292.732	584.77
292.863	-209.23
292.995	-315.23
293.126	47.77
293.258	168.77
293.39	-277.23
293.521	-220.23
293.653	-319.23
293.785	97.77
293.916	-161.23
294.048	46.77
294.179	28.77
294.311	-229.23
294.442	68.77
294.574	-269.23
294.706	-127.23
294.837	101.77
294.969	-75.23
295.1	-168.23
295.232	-245.23
295.363	177.77
295.495	-171.23
295.627	23.77
295.758	115.77
295.89	-347.23
296.021	34.77
296.153	33.77
296.284	-83.23
296.416	-146.23
296.547	-144.23
296.679	-65.23
296.81	-60.23
296.942	-340.23
297.073	-247.23
297.205	-280.23
297.336	-176.23
297.468	-227.23
297.599	-88.23
297.731	-332.23
297.862	-106.23
297.994	-315.23
298.125	-264.23
298.257	-157.23
298.388	37.77
298.52	-22.23
298.651	-87.23
298.782	244.77
298.914	-231.23
299.045	-164.23
299.177	-298.23
299.308	-301.23
299.44	2.77
299.571	-26.23
299.702	-138.23
299.834	-95.23
299.965	-153.23
300.097	-236.23
300.228	-21.23
300.36	-94.23
300.491	-105.23
300.622	-1.23
300.754	-126.23
300.885	-202.23
301.017	-33.23
301.148	-209.23
301.279	-309.23
301.411	14.77
301.542	-50.23
301.673	-51.23
301.805	9.77
301.936	-213.23
302.067	-133.23
302.199	-203.23
302.33	-241.23
302.461	314.77
302.593	21.77
302.724	-6.23
302.855	-291.23
302.987	-97.23
303.118	-285.23
303.249	-359.23
303.381	-122.23
303.512	-221.23
303.643	-195.23
303.775	160.77
303.906	-232.23
304.037	-257.23
304.169	-211.23
304.3	-129.23
304.431	-276.23
304.562	-195.23
304.694	-150.23
304.825	-57.23
304.956	93.77
305.087	-182.23
305.219	17.77
305.35	-61.23
305.481	-216.23
305.612	16.77
305.744	-26.23
305.875	-166.23
306.006	488.77
306.137	-208.23
306.269	-36.23
306.4	55.77
306.531	106.77
306.662	-158.23
306.794	93.77
306.925	-215.23
307.056	-249.23
307.187	-21.23
307.318	-118.23
307.45	-157.23
307.581	-201.23
307.712	-249.23
307.843	-90.23
307.974	-75.23
308.105	94.77
308.237	-70.23
308.368	-296.23
308.499	-145.23
308.63	13.77
308.761	-129.23
308.892	-121.23
309.024	-154.23
309.155	-175.23
309.286	-174.23
309.417	-259.23
309.548	-150.23
309.679	-149.23
309.81	-390.23
309.941	462.77
310.073	-73.23
310.204	-336.23
310.335	-18.23
310.466	-161.23
310.597	-236.23
310.728	-169.23
310.859	341.77
310.99	310.77
311.121	-98.23
311.252	-121.23
311.383	-257.23
311.514	-40.23
311.646	-128.23
311.777	-16.23
311.908	-59.23
312.039	-124.23
312.17	-350.23
312.301	-117.23
312.432	-230.23
312.563	-320.23
312.694	-37.23
312.825	-157.23
312.956	-232.23
313.087	45.77
313.218	96.77
313.349	-147.23
313.48	-339.23
313.611	-148.23
313.742	-106.23
313.873	52.77
314.004	-49.23
314.135	-189.23
314.266	-60.23
314.397	-165.23
314.528	-258.23
314.659	-258.23
314.79	-231.23
314.921	36.77
315.052	19.77
315.183	-265.23
315.314	-296.23
315.445	61.77
315.576	-32.23
315.707	-159.23
315.838	-187.23
315.968	-23.23
316.099	-290.23
316.23	-304.23
316.361	97.77
316.492	-123.23
316.623	40.77
316.754	182.77
316.885	-372.23
317.016	-307.23
317.147	-353.23
317.278	97.77
317.408	-228.23
317.539	-264.23
317.67	-287.23
317.801	-9.23
317.932	-204.23
318.063	-193.23
318.194	-138.23
318.325	12.77
318.455	-341.23
318.586	-156.23
318.717	-65.23
318.848	-316.23
318.979	79.77
319.11	263.77
319.24	39.77
319.371	50.77
319.502	-67.23
319.633	-219.23
319.764	-116.23
319.895	-239.23
320.025	-80.23
320.156	-301.23
320.287	-407.23
320.418	-248.23
320.549	-82.23
320.679	-312.23
320.81	114.77
320.941	-327.23
321.072	-291.23
321.202	-13.23
321.333	253.77
321.464	-368.23
321.595	-229.23
321.726	225.77
321.856	-360.23
321.987	-144.23
322.118	-229.23
322.249	8.77
322.379	-76.23
322.51	-17.23
322.641	-76.23
322.771	-299.23
322.902	-111.23
323.033	-123.23
323.164	720.77
323.294	-177.23
323.425	-231.23
323.556	-180.23
323.686	-111.23
323.817	303.77
323.948	-50.23
324.078	-119.23
324.209	112.77
324.34	-209.23
324.47	194.77
324.601	-221.23
324.732	-53.23
324.862	20.77
324.993	-225.23
325.124	-425.23
325.254	-67.23
325.385	-76.23
325.516	494.77
325.646	366.77
325.777	-170.23
325.908	-146.23
326.038	65.77
326.169	-147.23
326.299	-60.23
326.43	123.77
326.561	-139.23
326.691	-133.23
326.822	-281.23
326.952	-218.23
327.083	-75.23
327.214	-226.23
327.344	-82.23
327.475	7.77
327.605	-24.23
327.736	-156.23
327.867	-286.23
327.997	-144.23
328.128	-69.23
328.258	-332.23
328.389	263.77
328.519	-295.23
328.65	43.77
328.78	-230.23
328.911	-32.23
329.041	86.77
329.172	-324.23
329.303	-212.23
329.433	-178.23
329.564	-238.23
329.694	-260.23
329.825	-181.23
329.955	0.77
330.086	405.77
330.216	-155.23
330.347	-265.23
330.477	-108.23
330.608	-140.23
330.738	-115.23
330.868	-289.23
330.999	-152.23
331.129	131.77
331.26	-218.23
331.39	-187.23
331.521	162.77
331.651	21.77
331.782	-355.23
331.912	-272.23
332.043	-281.23
332.173	37.77
332.303	-321.23
332.434	102.77
332.564	-9.23
332.695	-206.23
332.825	-330.23
332.956	-216.23
333.086	-94.23
333.216	-271.23
333.347	-44.23
333.477	-396.23
333.608	-106.23
333.738	-14.23
333.868	-128.23
333.999	-70.23
334.129	103.77
334.259	-111.23
334.39	-245.23
334.52	58.77
334.65	-156.23
334.781	128.77
334.911	-197.23
335.042	-247.23
335.172	-36.23
335.302	-122.23
335.433	259.77
335.563	-252.23
335.693	41.77
335.824	264.77
335.954	-367.23
336.084	-26.23
336.214	-70.23
336.345	285.77
336.475	63.77
336.605	-219.23
336.736	292.77
336.866	-109.23
336.996	-188.23
337.126	-294.23
337.257	-95.23
337.387	-335.23
337.517	-232.23
337.648	-328.23
337.778	128.77
337.908	56.77
338.038	18.77
338.169	-165.23
338.299	231.77
338.429	-28.23
338.559	-232.23
338.69	-196.23
338.82	385.77
338.95	-31.23
339.08	-423.23
339.21	-302.23
339.341	-92.23
339.471	35.77
339.601	-108.23
339.731	-41.23
339.861	-173.23
339.992	-137.23
340.122	-114.23
340.252	-215.23
340.382	-227.23
340.512	-102.23
340.642	194.77
340.773	-58.23
340.903	-291.23
341.033	-74.23
341.163	-41.23
341.293	107.77
341.423	-212.23
341.554	-300.23
341.684	-28.23
341.814	-163.23
341.944	-179.23
342.074	-109.23
342.204	-169.23
342.334	143.77
342.464	-255.23
342.595	-186.23
342.725	-312.23
342.855	-32.23
342.985	-171.23
343.115	-264.23
343.245	-372.23
343.375	-12.23
343.505	-131.23
343.635	-19.23
343.765	-200.23
343.895	-376.23
344.025	26.77
344.155	-282.23
344.286	-162.23
344.416	-68.23
344.546	129.77
344.676	-69.23
344.806	186.77
344.936	-66.23
345.066	217.77
345.196	-256.23
345.326	-318.23
345.456	88.77
345.586	-251.23
345.716	-293.23
345.846	58.77
345.976	-357.23
346.106	-97.23
346.236	51.77
346.366	11.77
346.496	-187.23
346.626	-177.23
346.756	-205.23
346.886	-216.23
347.016	-350.23
347.146	-222.23
347.276	-258.23
347.406	-206.23
347.536	-27.23
347.666	120.77
347.795	-252.23
347.925	-152.23
348.055	135.77
348.185	-158.23
348.315	-179.23
348.445	84.77
348.575	-185.23
348.705	-241.23
348.835	-259.23
348.965	-155.23
349.095	9.77
349.225	231.77
349.354	-259.23
349.484	-158.23
349.614	-177.23
349.744	-227.23
349.874	-242.23
350.004	-332.23
350.134	-267.23
350.264	-313.23
350.393	-293.23
350.523	134.77
350.653	-320.23
350.783	47.77
350.913	162.77
351.043	-229.23
351.173	-182.23
351.302	-22.23
351.432	196.77
351.562	-84.23
351.692	-99.23
351.822	-162.23
351.951	-350.23
352.081	178.77
352.211	-86.23
352.341	156.77
352.471	131.77
352.6	-174.23
352.73	-220.23
352.86	-137.23
352.99	-8.23
353.12	-70.23
353.249	-20.23
353.379	-251.23
353.509	71.77
353.639	-298.23
353.768	-75.23
353.898	-218.23
354.028	-301.23
354.158	-164.23
354.287	-210.23
354.417	-305.23
354.547	-246.23
354.677	-336.23
354.806	-127.23
354.936	19.77
355.066	-198.23
355.195	-37.23
355.325	-25.23
355.455	-235.23
355.584	169.77
355.714	-266.23
355.844	140.77
355.974	-15.23
356.103	-96.23
356.233	-149.23
356.363	27.77
356.492	-286.23
356.622	-278.23
356.752	-7.23
356.881	-368.23
357.011	26.77
357.14	131.77
357.27	-171.23
357.4	65.77
357.529	-139.23
357.659	122.77
357.789	33.77
357.918	-321.23
358.048	-340.23
358.177	-138.23
358.307	-251.23
358.437	-71.23
358.566	-223.23
358.696	45.77
358.825	131.77
358.955	-296.23
359.085	22.77
359.214	-416.23
359.344	-104.23
359.473	-282.23
359.603	-144.23
359.733	-200.23
359.862	-332.23
359.992	88.77
360.121	-203.23
360.251	4.77
360.38	-337.23
360.51	68.77
360.639	-161.23
360.769	-49.23
360.898	82.77
361.028	85.77
361.157	-65.23
361.287	-2.23
361.416	-275.23
361.546	-125.23
361.675	-143.23
361.805	-172.23
361.934	17.77
362.064	-166.23
362.193	-180.23
362.323	-270.23
362.452	105.77
362.582	-264.23
362.711	-141.23
362.841	24.77
362.97	-41.23
363.1	-240.23
363.229	-317.23
363.359	-124.23
363.488	-231.23
363.617	-117.23
363.747	-94.23
363.876	-352.23
364.006	-22.23
364.135	-110.23
364.265	-138.23
364.394	-173.23
364.523	266.77
364.653	-267.23
364.782	2.77
364.912	-223.23
365.041	-294.23
365.17	-273.23
365.3	-60.23
365.429	192.77
365.558	-176.23
365.688	-249.23
365.817	-268.23
365.947	-65.23
366.076	-63.23
366.205	-117.23
366.335	-353.23
366.464	-264.23
366.593	84.77
366.723	-168.23
366.852	-177.23
366.981	-85.23
367.111	-281.23
367.24	-164.23
367.369	-153.23
367.499	530.77
367.628	122.77
367.757	-157.23
367.886	-49.23
368.016	81.77
368.145	-114.23
368.274	-79.23
368.404	-306.23
368.533	-97.23
368.662	-6.23
368.791	-202.23
368.921	-386.23
369.05	161.77
369.179	-59.23
369.308	294.77
369.438	-298.23
369.567	-358.23
369.696	-159.23
369.825	-28.23
369.955	-166.23
370.084	1.77
370.213	-102.23
370.342	-291.23
370.472	-291.23
370.601	398.77
370.73	39.77
370.859	-424.23
370.988	-165.23
371.118	-280.23
371.247	14.77
371.376	99.77
371.505	-86.23
371.634	-41.23
371.763	-92.23
371.893	-268.23
372.022	-145.23
372.151	-262.23
372.28	-316.23
372.409	-396.23
372.538	-193.23
372.667	-77.23
372.797	86.77
372.926	-356.23
373.055	-72.23
373.184	-133.23
373.313	-251.23
373.442	-27.23
373.571	-221.23
373.7	-145.23
373.83	-71.23
373.959	-406.23
374.088	-145.23
374.217	103.77
374.346	-169.23
374.475	-370.23
374.604	-232.23
374.733	226.77
374.862	-133.23
374.991	-277.23
375.12	-87.23
375.249	-65.23
375.378	-237.23
375.508	-318.23
375.637	-320.23
375.766	58.77
375.895	-166.23
376.024	160.77
376.153	-234.23
376.282	-105.23
376.411	-228.23
376.54	-453.23
376.669	-43.23
376.798	-181.23
376.927	-269.23
377.056	97.77
377.185	-79.23
377.314	83.77
377.443	273.77
377.572	-277.23
377.701	-282.23
377.83	121.77
377.959	-2.23
378.088	1666.77
378.217	136.77
378.346	-208.23
378.474	-365.23
378.603	-262.23
378.732	-74.23
378.861	-172.23
378.99	-274.23
379.119	-376.23
379.248	-85.23
379.377	-171.23
379.506	-184.23
379.635	106.77
379.764	-72.23
379.893	-289.23
380.022	-327.23
380.15	-109.23
380.279	-362.23
380.408	-272.23
380.537	-141.23
380.666	-15.23
380.795	-62.23
380.924	-156.23
381.053	-266.23
381.181	-78.23
381.31	755.77
381.439	-248.23
381.568	-182.23
381.697	-182.23
381.826	-123.23
381.955	-287.23
382.083	-103.23
382.212	-342.23
382.341	15.77
382.47	-239.23
382.599	-140.23
382.727	229.77
382.856	-29.23
382.985	-17.23
383.114	-183.23
383.243	-219.23
383.371	-137.23
383.5	-250.23
383.629	-245.23
383.758	-248.23
383.887	-423.23
384.015	-81.23
384.144	-294.23
384.273	-80.23
384.402	-38.23
384.53	-259.23
384.659	-273.23
384.788	-279.23
384.917	-235.23
385.045	-118.23
385.174	-128.23
385.303	-397.23
385.432	56.77
385.56	-140.23
385.689	-181.23
385.818	-52.23
385.946	-30.23
386.075	-243.23
386.204	-311.23
386.332	-115.23
386.461	38.77
386.59	0.77
386.718	-311.23
386.847	-195.23
386.976	-195.23
387.104	-350.23
387.233	-303.23
387.362	-93.23
387.49	-57.23
387.619	-285.23
387.748	-148.23
387.876	129.77
388.005	-112.23
388.134	89.77
388.262	-348.23
388.391	-244.23
388.52	-44.23
388.648	-307.23
388.777	71.77
388.905	-255.23
389.034	-160.23
389.163	-250.23
389.291	-145.23
389.42	22.77
389.548	76.77
389.677	-131.23
389.805	-112.23
389.934	-7.23
390.063	-308.23
390.191	-354.23
390.32	-248.23
390.448	-164.23
390.577	-284.23
390.705	-286.23
390.834	-114.23
390.962	-317.23
391.091	-283.23
391.22	121.77
391.348	145.77
391.477	-26.23
391.605	-352.23
391.734	-218.23
391.862	-238.23
391.991	-326.23
392.119	-295.23
392.248	-154.23
392.376	-97.23
392.505	-153.23
392.633	-181.23
392.762	287.77
392.89	-310.23
393.018	15.77
393.147	-205.23
393.275	-348.23
393.404	-273.23
393.532	-190.23
393.661	-112.23
393.789	-60.23
393.918	-122.23
394.046	-133.23
394.174	-129.23
394.303	-332.23
394.431	-234.23
394.56	37.77
394.688	-344.23
394.817	-403.23
394.945	85.77
395.073	36.77
395.202	-88.23
395.33	-163.23
395.459	-140.23
395.587	54.77
395.715	53.77
395.844	-106.23
395.972	-405.23
396.1	97.77
396.229	-258.23
396.357	-76.23
396.485	-198.23
396.614	-227.23
396.742	92.77
396.87	-117.23
396.999	-22.23
397.127	-328.23
397.255	-64.23
397.384	88.77
397.512	-326.23
397.64	-259.23
397.769	-167.23
397.897	-37.23
398.025	-146.23
398.154	-79.23
398.282	188.77
398.41	-116.23
398.538	-82.23
398.667	-216.23
398.795	-233.23
398.923	18.77
399.052	-209.23
399.18	-182.23
399.308	-125.23
399.436	203.77
399.565	-308.23
399.693	-68.23
399.821	-125.23
399.949	-221.23
400.078	262.77
400.206	-326.23
400.334	-306.23
400.462	-150.23
400.59	-316.23
400.719	-208.23
400.847	-293.23
400.975	-39.23
401.103	-280.23
401.231	-84.23
401.36	-103.23
401.488	-48.23
401.616	-179.23
401.744	-143.23
401.872	-219.23
402	-22.23
402.129	-195.23
402.257	-270.23
402.385	-158.23
402.513	-115.23
402.641	-190.23
402.769	-157.23
402.897	-231.23
403.026	-332.23
403.154	-354.23
403.282	-323.23
403.41	-207.23
403.538	167.77
403.666	-338.23
403.794	-166.23
403.922	-75.23
404.05	-91.23
404.179	-147.23
404.307	-99.23
404.435	-283.23
404.563	-272.23
404.691	-366.23
404.819	446.77
404.947	-289.23
405.075	-261.23
405.203	-334.23
405.331	-246.23
405.459	-294.23
405.587	-102.23
405.715	-230.23
405.843	-220.23
405.971	-66.23
406.099	129.77
406.227	-33.23
406.355	-198.23
406.483	-368.23
406.611	-39.23
406.739	-319.23
406.867	-323.23
406.995	-221.23
407.123	-173.23
407.251	-409.23
407.379	-333.23
407.507	-27.23
407.635	-152.23
407.763	-423.23
407.891	-401.23
408.019	-9.23
408.147	28.77
408.275	184.77
408.403	-339.23
408.531	-361.23
408.659	192.77
408.787	-111.23
408.915	-215.23
409.043	-241.23
409.171	48.77
409.299	42.77
409.427	78.77
409.554	-330.23
409.682	264.77
409.81	-80.23
409.938	-209.23
410.066	18.77
410.194	-73.23
410.322	-281.23
410.45	-195.23
410.578	-361.23
410.705	-294.23
410.833	-118.23
410.961	69.77
411.089	343.77
411.217	-127.23
411.345	-202.23
411.473	-266.23
411.6	-64.23
411.728	-207.23
411.856	-335.23
411.984	-313.23
412.112	-88.23
412.239	-64.23
412.367	-181.23
412.495	76.77
412.623	-244.23
412.751	41.77
412.878	-360.23
413.006	-171.23
413.134	95.77
413.262	159.77
413.39	-29.23
413.517	-72.23
413.645	35.77
413.773	-337.23
413.901	175.77
414.028	-126.23
414.156	-145.23
414.284	-273.23
414.412	78.77
414.539	-187.23
414.667	-228.23
414.795	-230.23
414.923	-440.23
415.05	-183.23
415.178	-34.23
415.306	312.77
415.433	-252.23
415.561	61.77
415.689	52.77
415.816	-234.23
415.944	140.77
416.072	-297.23
416.2	6.77
416.327	246.77
416.455	-277.23
416.583	-200.23
416.71	-241.23
416.838	122.77
416.966	-330.23
417.093	-189.23
417.221	57.77
417.348	-40.23
417.476	-344.23
417.604	-176.23
417.731	-156.23
417.859	46.77
417.987	-66.23
418.114	-264.23
418.242	26.77
418.369	-225.23
418.497	-343.23
418.625	142.77
418.752	-118.23
418.88	-316.23
419.007	176.77
419.135	-71.23
419.263	-205.23
419.39	39.77
419.518	83.77
419.645	31.77
419.773	630.77
419.9	1755.77
420.028	4158.77
420.155	5060.77
420.283	7027.77
420.41	7987.77
420.538	8779.77
420.666	9436.77
420.793	9589.77
420.921	8732.77
421.048	6962.77
421.176	4783.77
421.303	2404.77
421.431	688.77
421.558	-77.23
421.686	222.77
421.813	75.77
421.941	-172.23
422.068	-66.23
422.195	108.77
422.323	38.77
422.45	-356.23
422.578	-115.23
422.705	-213.23
422.833	-156.23
422.96	-289.23
423.088	-33.23
423.215	348.77
423.343	318.77
423.47	-49.23
423.597	230.77
423.725	-123.23
423.852	-155.23
423.98	-66.23
424.107	-361.23
424.234	-144.23
424.362	-215.23
424.489	-243.23
424.617	531.77
424.744	76.77
424.871	-306.23
424.999	-125.23
425.126	104.77
425.253	-41.23
425.381	-206.23
425.508	-315.23
425.636	35.77
425.763	-237.23
425.89	-222.23
426.018	-332.23
426.145	-169.23
426.272	-59.23
426.4	52.77
426.527	75.77
426.654	-318.23
426.781	-89.23
426.909	-122.23
427.036	-95.23
427.163	-369.23
427.291	-294.23
427.418	-189.23
427.545	-114.23
427.673	-341.23
427.8	-365.23
427.927	-334.23
428.054	-85.23
428.182	-156.23
428.309	-209.23
428.436	-224.23
428.563	-316.23
428.691	-97.23
428.818	-256.23
428.945	12.77
429.072	-323.23
429.2	-98.23
429.327	-64.23
429.454	36.77
429.581	-109.23
429.708	-378.23
429.836	-247.23
429.963	-236.23
430.09	-239.23
430.217	-249.23
430.344	-294.23
430.472	-303.23
430.599	-31.23
430.726	-217.23
430.853	-145.23
430.98	-34.23
431.107	-287.23
431.235	-152.23
431.362	-54.23
431.489	-150.23
431.616	253.77
431.743	105.77
431.87	-337.23
431.997	-181.23
432.125	-80.23
432.252	-443.23
432.379	-192.23
432.506	-26.23
432.633	-280.23
432.76	-117.23
432.887	120.77
433.014	-215.23
433.141	-289.23
433.268	-34.23
433.395	-260.23
433.523	-161.23
433.65	-185.23
433.777	-186.23
433.904	-185.23
434.031	-375.23
434.158	-99.23
434.285	10.77
434.412	-370.23
434.539	-138.23
434.666	-349.23
434.793	-274.23
434.92	-294.23
435.047	-20.23
435.174	-174.23
435.301	12.77
435.428	265.77
435.555	170.77
435.682	-89.23
435.809	-275.23
435.936	81.77
436.063	-226.23
436.19	101.77
436.317	-244.23
436.444	4.77
436.571	-254.23
436.698	-26.23
436.825	99.77
436.952	-25.23
437.079	-62.23
437.206	-29.23
437.333	-277.23
437.46	-179.23
437.587	-130.23
437.714	-344.23
437.84	-148.23
437.967	-344.23
438.094	-346.23
438.221	73.77
438.348	-199.23
438.475	8010.77
438.602	-307.23
438.729	-401.23
438.856	-250.23
438.983	-310.23
439.109	-6.23
439.236	36.77
439.363	-414.23
439.49	-238.23
439.617	-126.23
439.744	-265.23
439.871	439.77
439.997	-259.23
440.124	-65.23
440.251	-87.23
440.378	-238.23
440.505	-201.23
440.632	60.77
440.758	152.77
440.885	270.77
441.012	-286.23
441.139	14.77
441.266	-309.23
441.392	-229.23
441.519	-291.23
441.646	-369.23
441.773	-91.23
441.9	249.77
442.026	-232.23
442.153	-120.23
442.28	-57.23
442.407	-272.23
442.533	24.77
442.66	-55.23
442.787	-108.23
442.914	-251.23
443.04	-237.23
443.167	-155.23
443.294	-109.23
443.421	-96.23
443.547	-319.23
443.674	-158.23
443.801	-42.23
443.927	40.77
444.054	405.77
444.181	83.77
444.307	85.77
444.434	-67.23
444.561	-310.23
444.688	-372.23
444.814	35.77
444.941	-202.23
445.068	-324.23
445.194	228.77
445.321	-276.23
445.447	180.77
445.574	-394.23
445.701	-380.23
445.827	-191.23
445.954	-385.23
446.081	1.77
446.207	-283.23
446.334	-142.23
446.461	-218.23
446.587	-423.23
446.714	-17.23
446.84	62.77
446.967	-249.23
447.094	-204.23
447.22	66.77
447.347	-174.23
447.473	-270.23
447.6	-105.23
447.726	-394.23
447.853	-96.23
447.98	-138.23
448.106	-82.23
448.233	-113.23
448.359	-237.23
448.486	-90.23
448.612	-235.23
448.739	-59.23
448.865	75.77
448.992	229.77
449.118	-215.23
449.245	-310.23
449.371	-298.23
449.498	-142.23
449.624	-22.23
449.751	-86.23
449.877	-252.23
450.004	-125.23
450.13	-144.23
450.257	-297.23
450.383	-183.23
450.51	-386.23
450.636	-253.23
450.763	-185.23
450.889	-249.23
451.016	-446.23
451.142	-67.23
451.269	-275.23
451.395	275.77
451.521	-201.23
451.648	-277.23
451.774	-102.23
451.901	-394.23
452.027	-189.23
452.154	44.77
452.28	-187.23
452.406	-276.23
452.533	-264.23
452.659	-327.23
452.785	-177.23
452.912	-308.23
453.038	-314.23
453.165	-29.23
453.291	144.77
453.417	139.77
453.544	-307.23
453.67	-196.23
453.796	99.77
453.923	-338.23
454.049	-236.23
454.175	-270.23
454.302	-234.23
454.428	-46.23
454.554	-85.23
454.681	-255.23
454.807	-277.23
454.933	293.77
455.06	-115.23
455.186	-170.23
455.312	90.77
455.439	32.77
455.565	-350.23
455.691	-309.23
455.817	-43.23
455.944	65.77
456.07	-157.23
456.196	-49.23
456.322	-392.23
456.449	-363.23
456.575	-147.23
456.701	-255.23
456.827	-279.23
456.954	-342.23
457.08	-283.23
457.206	-426.23
457.332	-158.23
457.459	-342.23
457.585	-325.23
457.711	-256.23
457.837	-17.23
457.963	-93.23
458.09	-311.23
458.216	-353.23
458.342	-174.23
458.468	-187.23
458.594	-183.23
458.721	-123.23
458.847	-141.23
458.973	-365.23
459.099	-203.23
459.225	-211.23
459.351	-187.23
459.477	-54.23
459.604	-329.23
459.73	-216.23
459.856	-308.23
459.982	-108.23
460.108	-381.23
460.234	-433.23
460.36	-229.23
460.486	-15.23
460.613	-317.23
460.739	48.77
460.865	-230.23
460.991	228.77
461.117	144.77
461.243	-324.23
461.369	-357.23
461.495	-254.23
461.621	-148.23
461.747	-81.23
461.873	-18.23
461.999	-295.23
462.125	-178.23
462.252	38.77
462.378	-119.23
462.504	-21.23
462.63	-120.23
462.756	-310.23
462.882	-230.23
463.008	-231.23
463.134	86.77
463.26	-364.23
463.386	-203.23
463.512	-92.23
463.638	-251.23
463.764	-338.23
463.89	-179.23
464.016	66.77
464.142	-38.23
464.268	-273.23
464.394	-202.23
464.52	-346.23
464.645	-85.23
464.771	-2.23
464.897	-275.23
465.023	-258.23
465.149	-125.23
465.275	-355.23
465.401	-307.23
465.527	73.77
465.653	-142.23
465.779	75.77
465.905	-309.23
466.031	-110.23
466.157	-296.23
466.282	-231.23
466.408	-253.23
466.534	-127.23
466.66	-426.23
466.786	-222.23
466.912	-108.23
467.038	-137.23
467.164	-201.23
467.289	-246.23
467.415	-181.23
467.541	-150.23
467.667	-178.23
467.793	-235.23
467.919	-47.23
468.045	159.77
468.17	-291.23
468.296	-172.23
468.422	-202.23
468.548	49.77
468.674	-402.23
468.799	-313.23
468.925	-234.23
469.051	-290.23
469.177	-387.23
469.303	-402.23
469.428	14.77
469.554	-262.23
469.68	-276.23
469.806	-74.23
469.931	-161.23
470.057	358.77
470.183	-479.23
470.309	-244.23
470.434	127.77
470.56	-184.23
470.686	-85.23
470.812	-156.23
470.937	-316.23
471.063	-276.23
471.189	-81.23
471.315	53.77
471.44	-136.23
471.566	-188.23
471.692	67.77
471.817	-288.23
471.943	-126.23
472.069	-40.23
472.194	-217.23
472.32	-246.23
472.446	-23.23
472.571	-312.23
472.697	-242.23
472.823	-113.23
472.948	-329.23
473.074	-100.23
473.2	-188.23
473.325	-330.23
473.451	-196.23
473.577	-195.23
473.702	-409.23
473.828	-175.23
473.953	-376.23
474.079	-129.23
474.205	-316.23
474.33	-362.23
474.456	-257.23
474.581	221.77
474.707	-217.23
474.833	-253.23
474.958	-56.23
475.084	16.77
475.209	-229.23
475.335	-280.23
475.46	-77.23
475.586	-186.23
475.712	-81.23
475.837	-196.23
475.963	-227.23
476.088	-391.23
476.214	-294.23
476.339	-250.23
476.465	-266.23
476.59	-379.23
476.716	97.77
476.841	-337.23
476.967	200.77
477.092	-210.23
477.218	-98.23
477.343	-283.23
477.469	219.77
477.594	-242.23
477.72	-336.23
477.845	-105.23
477.971	-224.23
478.096	-135.23
478.222	-209.23
478.347	3243.77
478.472	12.77
478.598	-262.23
478.723	-238.23
478.849	-11.23
478.974	-64.23
479.1	-316.23
479.225	-108.23
479.35	-259.23
479.476	-59.23
479.601	-313.23
479.727	58.77
479.852	-284.23
479.977	-131.23
480.103	-178.23
480.228	182.77
480.354	-189.23
480.479	53.77
480.604	-223.23
480.73	-286.23
480.855	-423.23
480.98	16.77
481.106	-368.23
481.231	-397.23
481.356	-289.23
481.482	-435.23
481.607	-356.23
481.732	-482.23
481.858	-220.23
481.983	-310.23
482.108	-255.23
482.234	-394.23
482.359	-216.23
482.484	75.77
482.61	-301.23
482.735	-159.23
482.86	-391.23
482.985	-243.23
483.111	-184.23
483.236	-90.23
483.361	-266.23
483.486	-322.23
483.612	18.77
483.737	-408.23
483.862	-186.23
483.987	-86.23
484.113	-428.23
484.238	-39.23
484.363	-355.23
484.488	-236.23
484.614	-24.23
484.739	-226.23
484.864	54.77
484.989	391.77
485.114	-77.23
485.24	-192.23
485.365	-243.23
485.49	-422.23
485.615	8.77
485.74	-181.23
485.865	-82.23
485.991	-159.23
486.116	-92.23
486.241	-368.23
486.366	-350.23
486.491	-63.23
486.616	-255.23
486.742	-235.23
486.867	-163.23
486.992	-348.23
487.117	-323.23
487.242	-324.23
487.367	-455.23
487.492	-224.23
487.617	-27.23
487.742	-168.23
487.868	-299.23
487.993	-51.23
488.118	-103.23
488.243	-135.23
488.368	-290.23
488.493	-410.23
488.618	-251.23
488.743	-209.23
488.868	-323.23
488.993	-209.23
489.118	6.77
489.243	-177.23
489.368	-262.23
489.493	4.77
489.618	-179.23
489.743	-336.23
489.868	-158.23
489.993	-265.23
490.118	-430.23
490.243	370.77
490.368	-246.23
490.493	-32.23
490.618	-16.23
490.743	-437.23
490.868	-133.23
490.993	-155.23
491.118	-2.23
491.243	-344.23
491.368	-159.23
491.493	-25.23
491.618	-150.23
491.743	-208.23
491.868	-237.23
491.993	-188.23
492.118	-290.23
492.243	-186.23
492.368	-91.23
492.493	-294.23
492.618	108.77
492.743	-250.23
492.867	18.77
492.992	-170.23
493.117	-32.23
493.242	-293.23
493.367	-186.23
493.492	20.77
493.617	-305.23
493.742	61.77
493.867	-224.23
493.991	-393.23
494.116	-171.23
494.241	-154.23
494.366	-228.23
494.491	-58.23
494.616	38.77
494.74	-289.23
494.865	-372.23
494.99	-246.23
495.115	-218.23
495.24	-148.23
495.365	-267.23
495.489	-219.23
495.614	-106.23
495.739	-231.23
495.864	-261.23
495.989	-386.23
496.113	-12.23
496.238	-133.23
496.363	-289.23
496.488	-355.23
496.612	-10.23
496.737	-297.23
496.862	-207.23
496.987	-229.23
497.111	-331.23
497.236	-308.23
497.361	-315.23
497.486	65.77
497.61	-18.23
497.735	-201.23
497.86	-47.23
497.984	-61.23
498.109	-404.23
498.234	-290.23
498.359	-264.23
498.483	-164.23
498.608	-136.23
498.733	-248.23
498.857	-342.23
498.982	-159.23
499.107	-390.23
499.231	-178.23
499.356	-215.23
499.481	67.77
499.605	-506.23
499.73	-380.23
499.855	31.77
499.979	-315.23
500.104	-215.23
500.228	127.77
500.353	-201.23
500.478	-326.23
500.602	-129.23
500.727	86.77
500.852	-88.23
500.976	-414.23
501.101	-231.23
501.225	146.77
501.35	-332.23
501.474	-318.23
501.599	-14.23
501.724	-212.23
501.848	-189.23
501.973	79.77
502.097	-339.23
502.222	-424.23
502.346	-31.23
502.471	-117.23
502.595	-289.23
502.72	-315.23
502.844	-326.23
502.969	-206.23
503.094	141.77
503.218	-403.23
503.343	-276.23
503.467	-310.23
503.592	-238.23
503.716	-231.23
503.841	-110.23
503.965	192.77
504.089	-214.23
504.214	-341.23
504.338	-220.23
504.463	-3.23
504.587	-115.23
504.712	-145.23
504.836	-180.23
504.961	232.77
505.085	99.77
505.21	-278.23
505.334	-275.23
505.458	210.77
505.583	-372.23
505.707	-89.23
505.832	-257.23
505.956	-149.23
506.08	-321.23
506.205	-247.23
506.329	88.77
506.454	-374.23
506.578	-161.23
506.702	-316.23
506.827	121.77
506.951	-83.23
507.076	-182.23
507.2	-354.23
507.324	-45.23
507.449	80.77
507.573	-221.23
507.697	-256.23
507.822	-170.23
507.946	-205.23
508.07	-407.23
508.195	-195.23
508.319	-233.23
508.443	-137.23
508.567	-413.23
508.692	-350.23
508.816	-292.23
508.94	-194.23
509.065	-433.23
509.189	-72.23
509.313	-70.23
509.437	19.77
509.562	-231.23
509.686	-146.23
509.81	-232.23
509.935	-104.23
510.059	52.77
510.183	-299.23
510.307	-362.23
510.431	-10.23
510.556	-170.23
510.68	-251.23
510.804	-409.23
510.928	-186.23
511.053	-383.23
511.177	-361.23
511.301	-171.23
511.425	-262.23
511.549	-142.23
511.674	-141.23
511.798	-157.23
511.922	-54.23
512.046	164.77
512.17	-223.23
512.294	-337.23
512.419	-118.23
512.543	-49.23
512.667	-211.23
512.791	-294.23
512.915	-109.23
513.039	-233.23
513.163	-61.23
513.288	139.77
513.412	-247.23
513.536	36.77
513.66	-311.23
513.784	-205.23
513.908	-118.23
514.032	-162.23
514.156	-16.23
514.28	-39.23
514.404	-195.23
514.528	-187.23
514.653	-47.23
514.777	-2.23
514.901	-120.23
515.025	85.77
515.149	-213.23
515.273	-127.23
515.397	-200.23
515.521	-190.23
515.645	-225.23
515.769	-320.23
515.893	-254.23
516.017	-279.23
516.141	-390.23
516.265	-217.23
516.389	-302.23
516.513	-173.23
516.637	-281.23
516.761	-453.23
516.885	-286.23
517.009	-194.23
517.133	-108.23
517.257	-232.23
517.381	-8.23
517.505	-3.23
517.629	113.77
517.753	-225.23
517.877	-353.23
518.001	-242.23
518.125	-235.23
518.248	-52.23
518.372	-159.23
518.496	-403.23
518.62	-95.23
518.744	-210.23
518.868	-126.23
518.992	-150.23
519.116	-318.23
519.24	409.77
519.364	12.77
519.488	-162.23
519.611	-420.23
519.735	-213.23
519.859	-228.23
519.983	-15.23
520.107	-260.23
520.231	4.77
520.355	-162.23
520.478	-318.23
520.602	-341.23
520.726	63.77
520.85	-192.23
520.974	-17.23
521.098	-274.23
521.221	-353.23
521.345	54.77
521.469	-313.23
521.593	-207.23
521.717	57.77
521.84	-185.23
521.964	-300.23
522.088	-253.23
522.212	-207.23
522.335	-386.23
522.459	-262.23
522.583	213.77
522.707	-343.23
522.83	-437.23
522.954	-327.23
523.078	-305.23
523.202	-33.23
523.325	-234.23
523.449	-160.23
523.573	-153.23
523.697	-301.23
523.82	-189.23
523.944	-230.23
524.068	-188.23
524.191	-215.23
524.315	-422.23
524.439	-162.23
524.562	-55.23
524.686	-262.23
524.81	-344.23
524.933	-254.23
525.057	-220.23
525.181	-128.23
525.304	-372.23
525.428	100.77
525.552	-379.23
525.675	-193.23
525.799	-294.23
525.923	-148.23
526.046	-62.23
526.17	-424.23
526.293	-356.23
526.417	-115.23
526.541	6.77
526.664	-257.23
526.788	-229.23
526.911	-81.23
527.035	-350.23
527.159	-250.23
527.282	-255.23
527.406	-283.23
527.529	-58.23
527.653	-371.23
527.776	-123.23
527.9	-262.23
528.024	-297.23
528.147	-226.23
528.271	6.77
528.394	13.77
528.518	46.77
528.641	-361.23
528.765	-119.23
528.888	-152.23
529.012	-107.23
529.135	-259.23
529.259	68.77
529.382	-223.23
529.506	-334.23
529.629	-87.23
529.753	-370.23
529.876	102.77
530	33.77
530.123	-130.23
530.247	-318.23
530.37	-266.23
530.493	-166.23
530.617	-329.23
530.74	38.77
530.864	-51.23
530.987	-377.23
531.111	-99.23
531.234	-313.23
531.357	12.77
531.481	-23.23
531.604	5.77
531.728	-384.23
531.851	-104.23
531.974	-103.23
532.098	-244.23
532.221	-275.23
532.345	-205.23
532.468	-384.23
532.591	118.77
532.715	-209.23
532.838	-259.23
532.961	-190.23
533.085	-316.23
533.208	-169.23
533.331	-396.23
533.455	-23.23
533.578	-204.23
533.701	-102.23
533.825	1.77
533.948	-267.23
534.071	-252.23
534.195	-62.23
534.318	-343.23
534.441	-266.23
534.564	-84.23
534.688	-248.23
534.811	-37.23
534.934	-206.23
535.058	-126.23
535.181	44.77
535.304	-59.23
535.427	-292.23
535.551	-375.23
535.674	-219.23
535.797	-88.23
535.92	-22.23
536.043	-379.23
536.167	-342.23
536.29	-94.23
536.413	-115.23
536.536	-332.23
536.66	-252.23
536.783	-114.23
536.906	-162.23
537.029	-257.23
537.152	-266.23
537.275	-186.23
537.399	87.77
537.522	-429.23
537.645	-246.23
537.768	-216.23
537.891	-130.23
538.014	-201.23
538.138	-274.23
538.261	-250.23
538.384	-179.23
538.507	-366.23
538.63	-255.23
538.753	91.77
538.876	-114.23
538.999	-313.23
539.123	-96.23
539.246	174.77
539.369	243.77
539.492	-298.23
539.615	-353.23
539.738	178.77
539.861	-245.23
539.984	-164.23
540.107	-117.23
540.23	-253.23
540.353	-328.23
540.476	-466.23
540.599	-73.23
540.722	-326.23
540.846	-132.23
540.969	-427.23
541.092	-144.23
541.215	-335.23
541.338	-140.23
541.461	-340.23
541.584	-187.23
541.707	-176.23
541.83	-271.23
541.953	-141.23
542.076	-97.23
542.199	-159.23
542.322	65.77
542.445	106.77
542.567	-250.23
542.69	-116.23
542.813	-264.23
542.936	-91.23
543.059	-154.23
543.182	244.77
543.305	62.77
543.428	-137.23
543.551	-214.23
543.674	73.77
543.797	-54.23
543.92	-216.23
544.043	250.77
544.166	-326.23
544.288	-230.23
544.411	-89.23
544.534	-317.23
544.657	-162.23
544.78	-280.23
544.903	-98.23
545.026	-193.23
545.149	-340.23
545.271	-342.23
545.394	-277.23
545.517	-363.23
545.64	367.77
545.763	-219.23
545.886	-282.23
546.008	-106.23
546.131	3.77
546.254	-194.23
546.377	-402.23
546.5	-53.23
546.623	-59.23
546.745	-343.23
546.868	-220.23
546.991	23.77
547.114	-149.23
547.236	-180.23
547.359	-312.23
547.482	-123.23
547.605	-286.23
547.728	-245.23
547.85	-339.23
547.973	-307.23
548.096	-186.23
548.219	-79.23
548.341	-234.23
548.464	-379.23
548.587	-160.23
548.709	-235.23
548.832	-135.23
548.955	220.77
549.078	-1.23
549.2	-277.23
549.323	-254.23
549.446	164.77
549.568	-145.23
549.691	-63.23
549.814	-70.23
549.936	-268.23
550.059	-221.23
550.182	-335.23
550.304	-400.23
550.427	-124.23
550.55	-278.23
550.672	-288.23
550.795	252.77
550.917	-316.23
551.04	-191.23
551.163	-121.23
551.285	49.77
551.408	12.77
551.531	350.77
551.653	-359.23
551.776	-74.23
551.898	-108.23
552.021	-133.23
552.143	-205.23
552.266	-197.23
552.389	-186.23
552.511	-365.23
552.634	-354.23
552.756	-304.23
552.879	200.77
553.001	17.77
553.124	-410.23
553.246	-309.23
553.369	67.77
553.492	-186.23
553.614	8.77
553.737	-461.23
553.859	-23.23
553.982	6.77
554.104	-124.23
554.227	-309.23
554.349	-195.23
554.472	-204.23
554.594	-458.23
554.716	54.77
554.839	-40.23
554.961	-107.23
555.084	-346.23
555.206	-129.23
555.329	-369.23
555.451	-335.23
555.574	-79.23
555.696	-336.23
555.819	-149.23
555.941	-174.23
556.063	-35.23
556.186	-197.23
556.308	-96.23
556.431	226.77
556.553	-60.23
556.675	-290.23
556.798	-215.23
556.92	-17.23
557.043	-290.23
557.165	-354.23
557.287	1.77
557.41	-201.23
557.532	-166.23
557.654	-275.23
557.777	46.77
557.899	-149.23
558.021	-234.23
558.144	52.77
558.266	31.77
558.388	243.77
558.511	-195.23
558.633	-166.23
558.755	-264.23
558.878	-301.23
559	14.77
559.122	-418.23
559.244	-251.23
559.367	-164.23
559.489	25.77
559.611	101.77
559.734	-162.23
559.856	-133.23
559.978	-160.23
560.1	-172.23
560.223	-170.23
560.345	81.77
560.467	-377.23
560.589	-212.23
560.712	-194.23
560.834	208.77
560.956	-338.23
561.078	-218.23
561.2	-113.23
561.323	43.77
561.445	-389.23
561.567	-260.23
561.689	-327.23
561.811	-60.23
561.934	-235.23
562.056	-196.23
562.178	-78.23
562.3	-240.23
562.422	-87.23
562.544	-167.23
562.666	43.77
562.789	-117.23
562.911	-139.23
563.033	-53.23
563.155	-23.23
563.277	-273.23
563.399	-422.23
563.521	-245.23
563.643	-290.23
563.766	-164.23
563.888	8.77
564.01	-137.23
564.132	-227.23
564.254	-364.23
564.376	32.77
564.498	-153.23
564.62	123.77
564.742	-163.23
564.864	-408.23
564.986	-121.23
565.108	254.77
565.23	-251.23
565.352	-27.23
565.474	-125.23
565.597	157.77
565.719	115.77
565.841	-346.23
565.963	-120.23
566.085	-127.23
566.207	-205.23
566.329	14.77
566.451	9.77
566.573	-204.23
566.695	-197.23
566.817	178.77
566.938	-344.23
567.06	-191.23
567.182	-136.23
567.304	-184.23
567.426	-352.23
567.548	30.77
567.67	-133.23
567.792	-182.23
567.914	-284.23
568.036	-182.23
568.158	-138.23
568.28	-276.23
568.402	-57.23
568.524	-206.23
568.646	-292.23
568.767	-244.23
568.889	6.77
569.011	-168.23
569.133	-264.23
569.255	-360.23
569.377	-330.23
569.499	-140.23
569.621	-214.23
569.742	174.77
569.864	41.77
569.986	282.77
570.108	-0.23
570.23	-386.23
570.352	71.77
570.473	-105.23
570.595	-215.23
570.717	-343.23
570.839	-140.23
570.961	-33.23
571.082	-188.23
571.204	-325.23
571.326	-262.23
571.448	4.77
571.57	-1.23
571.691	-127.23
571.813	-130.23
571.935	43.77
572.057	-151.23
572.178	-326.23
572.3	63.77
572.422	128.77
572.544	185.77
572.665	-259.23
572.787	-342.23
572.909	104.77
573.031	-34.23
573.152	-326.23
573.274	-36.23
573.396	-34.23
573.517	-36.23
573.639	-442.23
573.761	-294.23
573.882	-127.23
574.004	-37.23
574.126	-323.23
574.247	-5.23
574.369	-9.23
574.491	-136.23
574.612	-319.23
574.734	-152.23
574.856	-110.23
574.977	-13.23
575.099	-137.23
575.221	-140.23
575.342	-167.23
575.464	-103.23
575.585	-73.23
575.707	-301.23
575.829	104.77
575.95	36.77
576.072	-226.23
576.193	-311.23
576.315	-192.23
576.437	-153.23
576.558	-186.23
576.68	-197.23
576.801	205.77
576.923	-343.23
577.044	48.77
577.166	-395.23
577.287	-135.23
577.409	-201.23
577.531	-186.23
577.652	-47.23
577.774	-367.23
577.895	-176.23
578.017	-291.23
578.138	-273.23
578.26	-191.23
578.381	-58.23
578.503	-281.23
578.624	-259.23
578.746	-367.23
578.867	-214.23
578.988	-86.23
579.11	121.77
579.231	-71.23
579.353	-233.23
579.474	-166.23
579.596	-204.23
579.717	1.77
579.839	-130.23
579.96	-460.23
580.081	-53.23
580.203	-151.23
580.324	-89.23
580.446	-59.23
580.567	-149.23
580.688	188.77
580.81	-319.23
580.931	-229.23
581.053	-372.23
581.174	-133.23
581.295	-246.23
581.417	-80.23
581.538	-34.23
581.659	0.77
581.781	-132.23
581.902	-268.23
582.024	-327.23
582.145	-318.23
582.266	-286.23
582.388	-175.23
582.509	-328.23
582.63	-115.23
582.751	-233.23
582.873	-218.23
582.994	-227.23
583.115	-170.23
583.237	-89.23
583.358	-260.23
583.479	-404.23
583.6	18.77
583.722	-176.23
583.843	-342.23
583.964	-30.23
584.086	-233.23
584.207	-49.23
584.328	-353.23
584.449	-108.23
584.57	-126.23
584.692	-142.23
584.813	850.77
584.934	-133.23
585.055	-297.23
585.177	-40.23
585.298	-130.23
585.419	-341.23
585.54	161.77
585.661	-44.23
585.783	-110.23
585.904	-248.23
586.025	62.77
586.146	-310.23
586.267	-264.23
586.388	-175.23
586.51	252.77
586.631	-319.23
586.752	-349.23
586.873	-230.23
586.994	-354.23
587.115	-339.23
587.236	-241.23
587.357	-392.23
587.479	-280.23
587.6	38.77
587.721	-246.23
587.842	-296.23
587.963	152.77
588.084	104.77
588.205	-306.23
588.326	-197.23
588.447	-161.23
588.568	-179.23
588.689	-130.23
588.81	-129.23
588.931	-171.23
589.052	-242.23
589.174	-285.23
589.295	-94.23
589.416	-122.23
589.537	35.77
589.658	-253.23
589.779	-376.23
589.9	26.77
590.021	-234.23
590.142	-256.23
590.263	-397.23
590.384	-152.23
590.505	204.77
590.626	-291.23
590.747	-159.23
590.867	-46.23
590.988	-53.23
591.109	-172.23
591.23	51.77
591.351	2.77
591.472	-148.23
591.593	-226.23
591.714	-112.23
591.835	-211.23
591.956	-215.23
592.077	-419.23
592.198	-160.23
592.319	-124.23
592.44	-8.23
592.56	-271.23
592.681	-365.23
592.802	-82.23
592.923	-171.23
593.044	-316.23
593.165	-357.23
593.286	-38.23
593.407	-255.23
593.527	-2.23
593.648	-314.23
593.769	-66.23
593.89	87.77
594.011	-186.23
594.132	-251.23
594.252	-112.23
594.373	-285.23
594.494	-391.23
594.615	-230.23
594.736	-221.23
594.856	45.77
594.977	-344.23
595.098	-101.23
595.219	-300.23
595.34	-101.23
595.46	-366.23
595.581	194.77
595.702	-172.23
595.823	-311.23
595.943	-109.23
596.064	-196.23
596.185	133.77
596.306	-383.23
596.426	-312.23
596.547	-348.23
596.668	-98.23
596.788	-117.23
596.909	-162.23
597.03	-109.23
597.151	-137.23
597.271	-260.23
597.392	-211.23
597.513	-89.23
597.633	-1.23
597.754	-114.23
597.875	-203.23
597.995	85.77
598.116	-116.23
598.237	-196.23
598.357	-310.23
598.478	-285.23
598.599	182.77
598.719	-182.23
598.84	-347.23
598.96	-290.23
599.081	-161.23
599.202	-176.23
599.322	-290.23
599.443	-325.23
599.563	-81.23
599.684	56.77
599.805	-255.23
599.925	-375.23
600.046	205.77
600.166	-195.23
600.287	-76.23
600.407	-167.23
600.528	61.77
600.649	-54.23
600.769	-129.23
600.89	-386.23
601.01	-25.23
601.131	-224.23
601.251	130.77
601.372	-106.23
601.492	-250.23
601.613	-260.23
601.733	-279.23
601.854	210.77
601.974	308.77
602.095	164.77
602.215	-329.23
602.336	-351.23
602.456	235.77
602.577	-240.23
602.697	684.77
602.817	-9.23
602.938	-138.23
603.058	-54.23
603.179	-353.23
603.299	-296.23
603.42	-330.23
603.54	-86.23
603.66	-349.23
603.781	-91.23
603.901	-214.23
604.022	109.77
604.142	-191.23
604.262	-131.23
604.383	-242.23
604.503	89.77
604.624	-289.23
604.744	-103.23
604.864	-57.23
604.985	-213.23
605.105	-119.23
605.225	-152.23
605.346	-133.23
605.466	2.77
605.586	178.77
605.707	296.77
605.827	-329.23
605.947	-188.23
606.068	-193.23
606.188	-195.23
606.308	-249.23
606.429	40.77
606.549	-264.23
606.669	-351.23
606.789	-272.23
606.91	-16.23
607.03	-279.23
607.15	-222.23
607.27	-82.23
607.391	-3.23
607.511	-254.23
607.631	-313.23
607.751	153.77
607.872	-24.23
607.992	-317.23
608.112	25.77
608.232	-244.23
608.353	-318.23
608.473	-262.23
608.593	97.77
608.713	318.77
608.833	-119.23
608.954	-284.23
609.074	-231.23
609.194	-304.23
609.314	184.77
609.434	-41.23
609.554	-158.23
609.675	-64.23
609.795	-243.23
609.915	-309.23
610.035	284.77
610.155	-162.23
610.275	-211.23
610.395	-41.23
610.516	-346.23
610.636	-136.23
610.756	-51.23
610.876	-70.23
610.996	-308.23
611.116	172.77
611.236	-338.23
611.356	-246.23
611.476	-173.23
611.596	-115.23
611.716	84.77
611.836	-324.23
611.957	-331.23
612.077	-137.23
612.197	-91.23
612.317	-290.23
612.437	43.77
612.557	82.77
612.677	-194.23
612.797	-146.23
612.917	-329.23
613.037	-23.23
613.157	-134.23
613.277	-112.23
613.397	119.77
613.517	157.77
613.637	-242.23
613.757	-168.23
613.877	-286.23
613.997	-92.23
614.117	-260.23
614.237	-197.23
614.356	-124.23
614.476	68.77
614.596	31.77
614.716	-193.23
614.836	-161.23
614.956	-8.23
615.076	-91.23
615.196	-310.23
615.316	-139.23
615.436	-31.23
615.556	135.77
615.676	179.77
615.795	-95.23
615.915	-104.23
616.035	-227.23
616.155	-194.23
616.275	-306.23
616.395	-199.23
616.515	-17.23
616.635	-396.23
616.754	-442.23
616.874	-4.23
616.994	-154.23
617.114	256.77
617.234	59.77
617.354	23.77
617.473	349.77
617.593	-244.23
617.713	-126.23
617.833	-33.23
617.953	-92.23
618.072	-473.23
618.192	-276.23
618.312	96.77
618.432	66.77
618.551	-327.23
618.671	-256.23
618.791	-36.23
618.911	-100.23
619.03	-171.23
619.15	-131.23
619.27	-147.23
619.39	-219.23
619.509	-168.23
619.629	-215.23
619.749	-280.23
619.868	-95.23
619.988	-375.23
620.108	-238.23
620.228	719.77
620.347	-96.23
620.467	-278.23
620.587	-312.23
620.706	76.77
620.826	-251.23
620.946	-316.23
621.065	-7.23
621.185	259.77
621.305	-211.23
621.424	-232.23
621.544	-421.23
621.663	-42.23
621.783	-199.23
621.903	204.77
622.022	-328.23
622.142	-118.23
622.261	173.77
622.381	-156.23
622.501	-48.23
622.62	-164.23
622.74	-98.23
622.859	-209.23
622.979	53.77
623.099	-217.23
623.218	-52.23
623.338	134.77
623.457	-62.23
623.577	-223.23
623.696	-62.23
623.816	-400.23
623.935	-283.23
624.055	-231.23
624.174	-146.23
624.294	-180.23
624.413	-349.23
624.533	-59.23
624.652	88.77
624.772	-279.23
624.891	-395.23
625.011	14.77
625.13	-200.23
625.25	-355.23
625.369	-258.23
625.489	-175.23
625.608	-280.23
625.728	-189.23
625.847	-169.23
625.966	-290.23
626.086	-263.23
626.205	-365.23
626.325	-108.23
626.444	-98.23
626.564	155.77
626.683	20.77
626.802	19.77
626.922	115.77
627.041	-35.23
627.161	-164.23
627.28	-6.23
627.399	18.77
627.519	-110.23
627.638	-425.23
627.757	-295.23
627.877	-177.23
627.996	-146.23
628.115	-54.23
628.235	-58.23
628.354	-299.23
628.473	-113.23
628.593	57.77
628.712	-144.23
628.831	-105.23
628.951	-323.23
629.07	60.77
629.189	-114.23
629.309	-173.23
629.428	191.77
629.547	-364.23
629.666	-41.23
629.786	-144.23
629.905	-282.23
630.024	-9.23
630.143	-91.23
630.263	-145.23
630.382	234.77
630.501	-229.23
630.62	-268.23
630.74	-292.23
630.859	97.77
630.978	-172.23
631.097	-335.23
631.216	-277.23
631.336	155.77
631.455	-269.23
631.574	-214.23
631.693	-36.23
631.812	-162.23
631.932	-420.23
632.051	85.77
632.17	308.77
632.289	13.77
632.408	-229.23
632.527	-168.23
632.646	-92.23
632.766	-234.23
632.885	148.77
633.004	-360.23
633.123	-130.23
633.242	-241.23
633.361	615.77
633.48	-289.23
633.599	-239.23
633.718	56.77
633.838	-95.23
633.957	-371.23
634.076	-74.23
634.195	-187.23
634.314	-30.23
634.433	-48.23
634.552	-196.23
634.671	-120.23
634.79	163.77
634.909	21.77
635.028	-56.23
635.147	-13.23
635.266	-273.23
635.385	-110.23
635.504	-313.23
635.623	-33.23
635.742	-382.23
635.861	-350.23
635.98	-105.23
636.099	-225.23
636.218	-174.23
636.337	-145.23
636.456	264.77
636.575	-33.23
636.694	-134.23
636.813	-366.23
636.932	-285.23
637.051	-86.23
637.17	-399.23
637.289	-108.23
637.408	-311.23
637.526	-108.23
637.645	-449.23
637.764	-387.23
637.883	-199.23
638.002	47.77
638.121	327.77
638.24	-284.23
638.359	59.77
638.478	-200.23
638.597	-319.23
638.715	373.77
638.834	-122.23
638.953	-5.23
639.072	-320.23
639.191	-391.23
639.31	45.77
639.428	-77.23
639.547	-88.23
639.666	-8.23
639.785	-34.23
639.904	-99.23
640.023	-377.23
640.141	-222.23
640.26	-163.23
640.379	-6.23
640.498	-418.23
640.616	-123.23
640.735	-153.23
640.854	88.77
640.973	-329.23
641.092	-12.23
641.21	-48.23
641.329	-168.23
641.448	-20.23
641.567	202.77
641.685	-139.23
641.804	-145.23
641.923	-172.23
642.041	-281.23
642.16	-158.23
642.279	63.77
642.398	-230.23
642.516	-305.23
642.635	149.77
642.754	-172.23
642.872	4.77
642.991	60.77
643.11	-234.23
643.228	-269.23
643.347	-376.23
643.466	-380.23
643.584	50.77
643.703	268.77
643.821	-136.23
643.94	-97.23
644.059	-48.23
644.177	61.77
644.296	-329.23
644.415	-265.23
644.533	-121.23
644.652	-16.23
644.77	-361.23
644.889	-330.23
645.008	30.77
645.126	-236.23
645.245	-22.23
645.363	17.77
645.482	-65.23
645.6	-146.23
645.719	-193.23
645.837	-233.23
645.956	-70.23
646.074	-269.23
646.193	-306.23
646.312	-5.23
646.43	154.77
646.549	219.77
646.667	-455.23
646.786	-316.23
646.904	38.77
647.023	-20.23
647.141	-337.23
647.26	-41.23
647.378	422.77
647.496	-157.23
647.615	-79.23
647.733	-111.23
647.852	189.77
647.97	-206.23
648.089	-15.23
648.207	-47.23
648.326	105.77
648.444	-140.23
648.562	-189.23
648.681	-98.23
648.799	-144.23
648.918	-69.23
649.036	-142.23
649.154	-265.23
649.273	77.77
649.391	-165.23
649.51	-294.23
649.628	-309.23
649.746	190.77
649.865	-218.23
649.983	-299.23
650.101	-124.23
650.22	-122.23
650.338	-237.23
650.456	-223.23
650.575	-258.23
650.693	-248.23
650.811	-3.23
650.93	-360.23
651.048	1033.77
651.166	317.77
651.285	-141.23
651.403	-18.23
651.521	-120.23
651.639	-141.23
651.758	-96.23
651.876	178.77
651.994	-358.23
652.112	91.77
652.231	-96.23
652.349	-311.23
652.467	-488.23
652.585	-120.23
652.704	12.77
652.822	-390.23
652.94	-361.23
653.058	-56.23
653.176	-193.23
653.295	-181.23
653.413	-37.23
653.531	-220.23
653.649	-115.23
653.767	-319.23
653.886	-348.23
654.004	-236.23
654.122	135.77
654.24	-390.23
654.358	-329.23
654.476	-124.23
654.594	200.77
654.713	-224.23
654.831	-412.23
654.949	-167.23
655.067	3.77
655.185	-324.23
655.303	-258.23
655.421	-162.23
655.539	122.77
655.658	-167.23
655.776	-229.23
655.894	8.77
656.012	164.77
656.13	-424.23
656.248	-246.23
656.366	-260.23
656.484	-167.23
656.602	-294.23
656.72	-299.23
656.838	-55.23
656.956	-144.23
657.074	-60.23
657.192	-110.23
657.31	-210.23
657.428	-133.23
657.546	-128.23
657.664	-126.23
657.782	-128.23
657.9	81.77
658.018	-228.23
658.136	-178.23
658.254	38.77
658.372	125.77
658.49	-316.23
658.608	-315.23
658.726	-16.23
658.844	-11.23
658.962	-277.23
659.08	-388.23
659.198	-39.23
659.316	-102.23
