Data from HR4D30811__7__00007.txt Node

Date: Fri Jan 26 16:32:22 MST 2024
User: Brock
Spectrometer: HR4D3081
Trigger mode: 4
Integration Time (sec): 8.000000E0
Scans to average: 1
Electric dark correction enabled: true
Nonlinearity correction enabled: false
Boxcar width: 0
XAxis mode: Wavelengths
Number of Pixels in Spectrum: 3648
>>>>>Begin Spectral Data<<<<<
197.25	-1308.38
197.385	-1308.38
197.519	-1308.38
197.653	-1219.38
197.787	200.62
197.922	-168.38
198.056	85.62
198.19	-0.38
198.324	12.62
198.459	-199.38
198.593	422.62
198.727	-5.38
198.861	-117.38
198.996	208.62
199.13	-261.38
199.264	-193.38
199.398	-76.38
199.533	292.62
199.667	90.62
199.801	-61.38
199.935	-288.38
200.07	-28.38
200.204	22.62
200.338	-178.38
200.472	-168.38
200.606	-323.38
200.741	-157.38
200.875	-131.38
201.009	-120.38
201.143	-236.38
201.277	82.62
201.412	92.62
201.546	222.62
201.68	131.62
201.814	-171.38
201.948	82.62
202.082	-67.38
202.217	-330.38
202.351	-93.38
202.485	-52.38
202.619	-269.38
202.753	-348.38
202.887	311.62
203.021	127.62
203.156	225.62
203.29	68.62
203.424	-38.38
203.558	-178.38
203.692	-75.38
203.826	-286.38
203.96	-121.38
204.094	149.62
204.229	-171.38
204.363	-197.38
204.497	-322.38
204.631	-318.38
204.765	-200.38
204.899	-116.38
205.033	-167.38
205.167	-204.38
205.301	-14.38
205.435	-314.38
205.569	-81.38
205.704	-84.38
205.838	-300.38
205.972	-135.38
206.106	518.62
206.24	-151.38
206.374	-220.38
206.508	13.62
206.642	23.62
206.776	-101.38
206.91	161.62
207.044	19.62
207.178	131.62
207.312	-8.38
207.446	-151.38
207.58	-140.38
207.714	-273.38
207.848	135.62
207.982	-371.38
208.116	47.62
208.25	-251.38
208.384	-158.38
208.518	-165.38
208.652	-240.38
208.786	-250.38
208.92	187.62
209.054	-28.38
209.188	-266.38
209.322	-140.38
209.456	-103.38
209.59	-273.38
209.724	-69.38
209.858	-37.38
209.992	-82.38
210.126	-175.38
210.26	-145.38
210.394	-40.38
210.528	-13.38
210.662	-203.38
210.796	-156.38
210.929	116.62
211.063	-1.38
211.197	-80.38
211.331	-18.38
211.465	-196.38
211.599	98.62
211.733	104.62
211.867	-178.38
212.001	-181.38
212.135	-51.38
212.269	-230.38
212.402	-223.38
212.536	89.62
212.67	-128.38
212.804	-220.38
212.938	40.62
213.072	-187.38
213.206	-73.38
213.34	-177.38
213.473	-126.38
213.607	105.62
213.741	-262.38
213.875	-305.38
214.009	-236.38
214.143	-153.38
214.277	-147.38
214.41	-237.38
214.544	217.62
214.678	140.62
214.812	291.62
214.946	-271.38
215.08	-175.38
215.213	-214.38
215.347	-114.38
215.481	-87.38
215.615	-331.38
215.749	-2.38
215.882	-242.38
216.016	-298.38
216.15	88.62
216.284	156.62
216.418	9.62
216.551	122.62
216.685	40.62
216.819	-288.38
216.953	-157.38
217.086	252.62
217.22	-165.38
217.354	-28.38
217.488	56.62
217.621	115.62
217.755	-5.38
217.889	-115.38
218.023	-56.38
218.156	79.62
218.29	50.62
218.424	142.62
218.558	-227.38
218.691	-375.38
218.825	-106.38
218.959	421.62
219.092	-138.38
219.226	-326.38
219.36	-287.38
219.494	-40.38
219.627	-176.38
219.761	-205.38
219.895	-120.38
220.028	-285.38
220.162	546.62
220.296	138.62
220.429	-31.38
220.563	-49.38
220.697	-27.38
220.83	-220.38
220.964	-158.38
221.098	-271.38
221.231	-243.38
221.365	74.62
221.499	-204.38
221.632	-235.38
221.766	47.62
221.9	-111.38
222.033	67.62
222.167	89.62
222.3	-217.38
222.434	6.62
222.568	252.62
222.701	-160.38
222.835	-110.38
222.968	-225.38
223.102	-230.38
223.236	-250.38
223.369	24.62
223.503	12.62
223.636	-242.38
223.77	-141.38
223.904	12.62
224.037	-183.38
224.171	74.62
224.304	31.62
224.438	-184.38
224.571	-104.38
224.705	180.62
224.839	-36.38
224.972	-323.38
225.106	-17.38
225.239	-109.38
225.373	58.62
225.506	-58.38
225.64	70.62
225.773	-162.38
225.907	-209.38
226.04	-325.38
226.174	-106.38
226.307	-38.38
226.441	-159.38
226.575	21.62
226.708	149.62
226.842	-61.38
226.975	-179.38
227.109	-217.38
227.242	-6.38
227.375	71.62
227.509	-42.38
227.642	-173.38
227.776	59.62
227.909	57.62
228.043	-218.38
228.176	212.62
228.31	-262.38
228.443	318.62
228.577	-52.38
228.71	-152.38
228.844	6.62
228.977	-262.38
229.111	-151.38
229.244	82.62
229.377	-329.38
229.511	-31.38
229.644	-179.38
229.778	-170.38
229.911	-196.38
230.044	-145.38
230.178	-34.38
230.311	-236.38
230.445	19.62
230.578	-209.38
230.711	-81.38
230.845	327.62
230.978	62.62
231.112	-267.38
231.245	-258.38
231.378	-229.38
231.512	52.62
231.645	-397.38
231.779	-323.38
231.912	-50.38
232.045	48.62
232.179	-192.38
232.312	-136.38
232.445	59.62
232.579	277.62
232.712	152.62
232.845	-222.38
232.979	-334.38
233.112	69.62
233.245	-119.38
233.379	-280.38
233.512	-25.38
233.645	-264.38
233.779	-285.38
233.912	22.62
234.045	-178.38
234.179	36.62
234.312	-141.38
234.445	12.62
234.578	-35.38
234.712	7.62
234.845	41.62
234.978	-168.38
235.112	-52.38
235.245	106.62
235.378	-182.38
235.511	-3.38
235.645	28.62
235.778	6.62
235.911	-159.38
236.044	-289.38
236.178	280.62
236.311	-251.38
236.444	-263.38
236.577	-229.38
236.711	-53.38
236.844	-420.38
236.977	-136.38
237.11	-184.38
237.243	27.62
237.377	-283.38
237.51	-227.38
237.643	918.62
237.776	-149.38
237.909	-137.38
238.043	-16.38
238.176	-239.38
238.309	-76.38
238.442	-334.38
238.575	-64.38
238.709	408.62
238.842	7.62
238.975	-12.38
239.108	166.62
239.241	-310.38
239.374	-231.38
239.508	-226.38
239.641	231.62
239.774	339.62
239.907	-69.38
240.04	-267.38
240.173	9.62
240.306	236.62
240.44	-148.38
240.573	153.62
240.706	-153.38
240.839	24.62
240.972	-81.38
241.105	-43.38
241.238	42.62
241.371	-23.38
241.504	-40.38
241.638	-125.38
241.771	-6.38
241.904	-162.38
242.037	41.62
242.17	-166.38
242.303	-292.38
242.436	-103.38
242.569	-113.38
242.702	-210.38
242.835	-167.38
242.968	-29.38
243.101	-112.38
243.234	-202.38
243.367	-270.38
243.5	-147.38
243.634	-180.38
243.767	-315.38
243.9	-215.38
244.033	-264.38
244.166	55.62
244.299	-328.38
244.432	-224.38
244.565	19.62
244.698	-319.38
244.831	-163.38
244.964	-251.38
245.097	-177.38
245.23	10.62
245.363	150.62
245.496	-269.38
245.629	-159.38
245.762	468.62
245.895	-255.38
246.028	-187.38
246.161	426.62
246.294	10.62
246.427	-222.38
246.559	79.62
246.692	-55.38
246.825	-148.38
246.958	-221.38
247.091	-279.38
247.224	-310.38
247.357	-202.38
247.49	103.62
247.623	-165.38
247.756	-294.38
247.889	285.62
248.022	-76.38
248.155	-264.38
248.288	-95.38
248.421	-257.38
248.553	69.62
248.686	-251.38
248.819	83.62
248.952	-260.38
249.085	172.62
249.218	-19.38
249.351	-94.38
249.484	146.62
249.617	-71.38
249.749	-237.38
249.882	-227.38
250.015	-252.38
250.148	-156.38
250.281	-269.38
250.414	-157.38
250.547	-139.38
250.679	197.62
250.812	-108.38
250.945	-9.38
251.078	-239.38
251.211	-155.38
251.344	-271.38
251.476	-187.38
251.609	-7.38
251.742	-264.38
251.875	-73.38
252.008	-191.38
252.14	-343.38
252.273	-116.38
252.406	188.62
252.539	-17.38
252.672	-77.38
252.804	161.62
252.937	-255.38
253.07	-23.38
253.203	-123.38
253.335	109.62
253.468	-355.38
253.601	-153.38
253.734	-89.38
253.866	-134.38
253.999	391.62
254.132	-17.38
254.265	-135.38
254.397	-187.38
254.53	-141.38
254.663	39.62
254.796	-192.38
254.928	-258.38
255.061	-224.38
255.194	-72.38
255.327	-301.38
255.459	-28.38
255.592	-279.38
255.725	179.62
255.857	-210.38
255.99	6.62
256.123	-224.38
256.255	-256.38
256.388	-73.38
256.521	-249.38
256.653	-303.38
256.786	-220.38
256.919	-160.38
257.051	-273.38
257.184	-32.38
257.317	-220.38
257.449	-256.38
257.582	-92.38
257.715	-194.38
257.847	-220.38
257.98	-93.38
258.113	-196.38
258.245	-136.38
258.378	-357.38
258.51	-267.38
258.643	-248.38
258.776	27.62
258.908	-263.38
259.041	-65.38
259.174	-163.38
259.306	-196.38
259.439	-260.38
259.571	-187.38
259.704	-107.38
259.837	159.62
259.969	-223.38
260.102	-236.38
260.234	231.62
260.367	68.62
260.499	-218.38
260.632	-153.38
260.765	-212.38
260.897	-213.38
261.03	-230.38
261.162	-56.38
261.295	-24.38
261.427	90.62
261.56	-72.38
261.692	-256.38
261.825	-66.38
261.957	113.62
262.09	121.62
262.222	23.62
262.355	-246.38
262.487	-131.38
262.62	-285.38
262.752	-68.38
262.885	-123.38
263.017	7.62
263.15	-192.38
263.282	-73.38
263.415	-242.38
263.547	-32.38
263.68	200.62
263.812	-312.38
263.945	-95.38
264.077	-244.38
264.21	161.62
264.342	-285.38
264.475	-237.38
264.607	140.62
264.74	-391.38
264.872	-103.38
265.004	118.62
265.137	74.62
265.269	345.62
265.402	-271.38
265.534	-189.38
265.667	-174.38
265.799	90.62
265.931	-118.38
266.064	-2.38
266.196	-145.38
266.329	-202.38
266.461	-178.38
266.593	10.62
266.726	-328.38
266.858	-135.38
266.99	-85.38
267.123	-174.38
267.255	-72.38
267.388	-115.38
267.52	-250.38
267.652	-224.38
267.785	133.62
267.917	-13.38
268.049	-163.38
268.182	388.62
268.314	49.62
268.446	-322.38
268.579	-225.38
268.711	197.62
268.843	-201.38
268.976	-72.38
269.108	349.62
269.24	155.62
269.373	-14.38
269.505	-159.38
269.637	-131.38
269.77	-214.38
269.902	164.62
270.034	-261.38
270.167	40.62
270.299	-15.38
270.431	1.62
270.563	-197.38
270.696	-7.38
270.828	-97.38
270.96	-86.38
271.092	-3.38
271.225	-246.38
271.357	-52.38
271.489	-178.38
271.621	-250.38
271.754	499.62
271.886	-190.38
272.018	-198.38
272.15	291.62
272.283	-278.38
272.415	-168.38
272.547	87.62
272.679	100.62
272.811	-122.38
272.944	-131.38
273.076	-348.38
273.208	-44.38
273.34	-75.38
273.473	-133.38
273.605	101.62
273.737	-288.38
273.869	-20.38
274.001	-393.38
274.133	-3.38
274.266	-199.38
274.398	1445.62
274.53	28.62
274.662	116.62
274.794	9.62
274.926	61.62
275.059	-184.38
275.191	-8.38
275.323	-242.38
275.455	101.62
275.587	-229.38
275.719	-150.38
275.851	-121.38
275.983	46.62
276.116	-10.38
276.248	115.62
276.38	-253.38
276.512	-28.38
276.644	-157.38
276.776	-216.38
276.908	-33.38
277.04	-107.38
277.172	27.62
277.304	-217.38
277.437	12.62
277.569	-218.38
277.701	-239.38
277.833	-118.38
277.965	-178.38
278.097	42.62
278.229	-192.38
278.361	-138.38
278.493	106.62
278.625	187.62
278.757	28.62
278.889	-279.38
279.021	-186.38
279.153	485.62
279.285	-227.38
279.417	568.62
279.549	57.62
279.681	-93.38
279.813	-176.38
279.945	18.62
280.077	-226.38
280.209	1073.62
280.341	-283.38
280.473	-146.38
280.605	82.62
280.737	-42.38
280.869	213.62
281.001	-67.38
281.133	-346.38
281.265	-28.38
281.397	-128.38
281.529	287.62
281.661	-262.38
281.793	-346.38
281.925	-230.38
282.057	-121.38
282.189	-130.38
282.321	-32.38
282.453	25.62
282.585	-249.38
282.717	145.62
282.849	-67.38
282.98	-167.38
283.112	-212.38
283.244	-18.38
283.376	-243.38
283.508	-371.38
283.64	-235.38
283.772	111.62
283.904	76.62
284.036	-290.38
284.168	126.62
284.299	-43.38
284.431	-33.38
284.563	-137.38
284.695	-152.38
284.827	-234.38
284.959	-18.38
285.091	-238.38
285.222	-277.38
285.354	-200.38
285.486	-112.38
285.618	-275.38
285.75	-141.38
285.882	173.62
286.013	51.62
286.145	-58.38
286.277	1.62
286.409	72.62
286.541	32.62
286.673	-237.38
286.804	-203.38
286.936	-51.38
287.068	-195.38
287.2	-215.38
287.332	332.62
287.463	-323.38
287.595	-75.38
287.727	433.62
287.859	-132.38
287.99	-103.38
288.122	-174.38
288.254	45.62
288.386	-159.38
288.517	-298.38
288.649	-150.38
288.781	-21.38
288.913	-9.38
289.044	-282.38
289.176	155.62
289.308	-155.38
289.44	-357.38
289.571	-227.38
289.703	-263.38
289.835	74.62
289.967	-252.38
290.098	-323.38
290.23	-289.38
290.362	108.62
290.493	-313.38
290.625	-174.38
290.757	-183.38
290.888	-99.38
291.02	-47.38
291.152	-37.38
291.283	-18.38
291.415	-122.38
291.547	-263.38
291.678	-243.38
291.81	-42.38
291.942	269.62
292.073	-28.38
292.205	-278.38
292.337	69.62
292.468	480.62
292.6	-197.38
292.732	606.62
292.863	-224.38
292.995	-332.38
293.126	40.62
293.258	170.62
293.39	-269.38
293.521	-243.38
293.653	-300.38
293.785	84.62
293.916	-146.38
294.048	25.62
294.179	-6.38
294.311	-260.38
294.442	37.62
294.574	-282.38
294.706	-117.38
294.837	81.62
294.969	-50.38
295.1	-172.38
295.232	-258.38
295.363	183.62
295.495	-185.38
295.627	12.62
295.758	121.62
295.89	-358.38
296.021	8.62
296.153	36.62
296.284	-110.38
296.416	-142.38
296.547	-182.38
296.679	-45.38
296.81	-49.38
296.942	-346.38
297.073	-266.38
297.205	-269.38
297.336	-171.38
297.468	-237.38
297.599	-71.38
297.731	-330.38
297.862	-104.38
297.994	-331.38
298.125	-237.38
298.257	-121.38
298.388	14.62
298.52	3.62
298.651	-107.38
298.782	248.62
298.914	-249.38
299.045	-170.38
299.177	-297.38
299.308	-307.38
299.44	21.62
299.571	-9.38
299.702	-148.38
299.834	-98.38
299.965	-120.38
300.097	-247.38
300.228	-43.38
300.36	-91.38
300.491	-119.38
300.622	6.62
300.754	-127.38
300.885	-225.38
301.017	-24.38
301.148	-176.38
301.279	-307.38
301.411	19.62
301.542	-36.38
301.673	-34.38
301.805	2.62
301.936	-217.38
302.067	-139.38
302.199	-164.38
302.33	-266.38
302.461	324.62
302.593	16.62
302.724	-21.38
302.855	-290.38
302.987	-109.38
303.118	-298.38
303.249	-369.38
303.381	-132.38
303.512	-192.38
303.643	-222.38
303.775	107.62
303.906	-248.38
304.037	-245.38
304.169	-230.38
304.3	-143.38
304.431	-260.38
304.562	-234.38
304.694	-150.38
304.825	-58.38
304.956	94.62
305.087	-194.38
305.219	3.62
305.35	-55.38
305.481	-208.38
305.612	28.62
305.744	-1.38
305.875	-163.38
306.006	538.62
306.137	-222.38
306.269	-74.38
306.4	78.62
306.531	95.62
306.662	-110.38
306.794	135.62
306.925	-228.38
307.056	-274.38
307.187	-41.38
307.318	-99.38
307.45	-158.38
307.581	-209.38
307.712	-245.38
307.843	-64.38
307.974	-68.38
308.105	112.62
308.237	-90.38
308.368	-288.38
308.499	-174.38
308.63	2.62
308.761	-124.38
308.892	-98.38
309.024	-132.38
309.155	-197.38
309.286	-177.38
309.417	-262.38
309.548	-164.38
309.679	-177.38
309.81	-393.38
309.941	426.62
310.073	-19.38
310.204	-330.38
310.335	-32.38
310.466	-182.38
310.597	-253.38
310.728	-176.38
310.859	346.62
310.99	188.62
311.121	-85.38
311.252	-101.38
311.383	-243.38
311.514	-27.38
311.646	-191.38
311.777	-38.38
311.908	-33.38
312.039	-101.38
312.17	-340.38
312.301	-105.38
312.432	-202.38
312.563	-323.38
312.694	-42.38
312.825	-171.38
312.956	-242.38
313.087	40.62
313.218	65.62
313.349	-157.38
313.48	-347.38
313.611	-115.38
313.742	-107.38
313.873	57.62
314.004	-35.38
314.135	-184.38
314.266	-83.38
314.397	-162.38
314.528	-272.38
314.659	-278.38
314.79	-250.38
314.921	66.62
315.052	32.62
315.183	-265.38
315.314	-310.38
315.445	68.62
315.576	-70.38
315.707	-154.38
315.838	-165.38
315.968	-22.38
316.099	-279.38
316.23	-307.38
316.361	121.62
316.492	-139.38
316.623	42.62
316.754	185.62
316.885	-369.38
317.016	-300.38
317.147	-380.38
317.278	77.62
317.408	-243.38
317.539	-281.38
317.67	-259.38
317.801	-42.38
317.932	-151.38
318.063	-214.38
318.194	-138.38
318.325	-27.38
318.455	-361.38
318.586	-135.38
318.717	-41.38
318.848	-331.38
318.979	81.62
319.11	300.62
319.24	29.62
319.371	65.62
319.502	-106.38
319.633	-208.38
319.764	-135.38
319.895	-235.38
320.025	-82.38
320.156	-318.38
320.287	-452.38
320.418	-225.38
320.549	-65.38
320.679	-334.38
320.81	119.62
320.941	-337.38
321.072	-277.38
321.202	-16.38
321.333	239.62
321.464	-369.38
321.595	-245.38
321.726	209.62
321.856	-330.38
321.987	-170.38
322.118	-187.38
322.249	-10.38
322.379	-67.38
322.51	-5.38
322.641	-73.38
322.771	-334.38
322.902	-108.38
323.033	-109.38
323.164	679.62
323.294	-175.38
323.425	-219.38
323.556	-160.38
323.686	-125.38
323.817	273.62
323.948	-25.38
324.078	-142.38
324.209	131.62
324.34	-191.38
324.47	163.62
324.601	-209.38
324.732	-66.38
324.862	25.62
324.993	-225.38
325.124	-409.38
325.254	-90.38
325.385	-97.38
325.516	508.62
325.646	395.62
325.777	-158.38
325.908	-127.38
326.038	72.62
326.169	-138.38
326.299	-82.38
326.43	134.62
326.561	-134.38
326.691	-140.38
326.822	-263.38
326.952	-200.38
327.083	-63.38
327.214	-240.38
327.344	-66.38
327.475	-14.38
327.605	-68.38
327.736	-153.38
327.867	-284.38
327.997	-146.38
328.128	-42.38
328.258	-321.38
328.389	244.62
328.519	-284.38
328.65	20.62
328.78	-207.38
328.911	-32.38
329.041	94.62
329.172	-323.38
329.303	-224.38
329.433	-185.38
329.564	-254.38
329.694	-237.38
329.825	-223.38
329.955	-59.38
330.086	419.62
330.216	-171.38
330.347	-285.38
330.477	-108.38
330.608	-128.38
330.738	-93.38
330.868	-298.38
330.999	-187.38
331.129	132.62
331.26	-236.38
331.39	-200.38
331.521	153.62
331.651	1.62
331.782	-321.38
331.912	-277.38
332.043	-249.38
332.173	46.62
332.303	-317.38
332.434	143.62
332.564	-8.38
332.695	-213.38
332.825	-315.38
332.956	-187.38
333.086	-112.38
333.216	-264.38
333.347	-38.38
333.477	-406.38
333.608	-100.38
333.738	-1.38
333.868	-135.38
333.999	-60.38
334.129	81.62
334.259	-80.38
334.39	-239.38
334.52	31.62
334.65	-166.38
334.781	108.62
334.911	-186.38
335.042	-271.38
335.172	-40.38
335.302	-112.38
335.433	283.62
335.563	-255.38
335.693	36.62
335.824	247.62
335.954	-397.38
336.084	6.62
336.214	-54.38
336.345	288.62
336.475	81.62
336.605	-251.38
336.736	310.62
336.866	-100.38
336.996	-184.38
337.126	-276.38
337.257	-85.38
337.387	-339.38
337.517	-233.38
337.648	-338.38
337.778	168.62
337.908	75.62
338.038	24.62
338.169	-158.38
338.299	237.62
338.429	-26.38
338.559	-225.38
338.69	-162.38
338.82	382.62
338.95	-22.38
339.08	-435.38
339.21	-297.38
339.341	-97.38
339.471	50.62
339.601	-107.38
339.731	-58.38
339.861	-171.38
339.992	-151.38
340.122	-107.38
340.252	-211.38
340.382	-186.38
340.512	-67.38
340.642	171.62
340.773	-77.38
340.903	-281.38
341.033	-97.38
341.163	-21.38
341.293	80.62
341.423	-221.38
341.554	-302.38
341.684	-0.38
341.814	-146.38
341.944	-171.38
342.074	-100.38
342.204	-155.38
342.334	162.62
342.464	-263.38
342.595	-161.38
342.725	-297.38
342.855	-66.38
342.985	-157.38
343.115	-264.38
343.245	-362.38
343.375	-52.38
343.505	-122.38
343.635	30.62
343.765	-193.38
343.895	-357.38
344.025	43.62
344.155	-304.38
344.286	-181.38
344.416	-71.38
344.546	104.62
344.676	-108.38
344.806	147.62
344.936	-80.38
345.066	195.62
345.196	-248.38
345.326	-321.38
345.456	82.62
345.586	-277.38
345.716	-264.38
345.846	32.62
345.976	-350.38
346.106	-101.38
346.236	29.62
346.366	32.62
346.496	-187.38
346.626	-152.38
346.756	-218.38
346.886	-262.38
347.016	-336.38
347.146	-229.38
347.276	-259.38
347.406	-209.38
347.536	-46.38
347.666	158.62
347.795	-278.38
347.925	-151.38
348.055	98.62
348.185	-177.38
348.315	-178.38
348.445	98.62
348.575	-210.38
348.705	-244.38
348.835	-278.38
348.965	-143.38
349.095	25.62
349.225	257.62
349.354	-269.38
349.484	-172.38
349.614	-155.38
349.744	-250.38
349.874	-276.38
350.004	-362.38
350.134	-271.38
350.264	-339.38
350.393	-307.38
350.523	123.62
350.653	-319.38
350.783	38.62
350.913	119.62
351.043	-213.38
351.173	-190.38
351.302	-21.38
351.432	163.62
351.562	-131.38
351.692	-78.38
351.822	-183.38
351.951	-365.38
352.081	189.62
352.211	-114.38
352.341	178.62
352.471	113.62
352.6	-144.38
352.73	-207.38
352.86	-135.38
352.99	-0.38
353.12	-87.38
353.249	-30.38
353.379	-253.38
353.509	63.62
353.639	-278.38
353.768	-92.38
353.898	-216.38
354.028	-308.38
354.158	-178.38
354.287	-227.38
354.417	-302.38
354.547	-266.38
354.677	-349.38
354.806	-157.38
354.936	-14.38
355.066	-218.38
355.195	-35.38
355.325	-56.38
355.455	-242.38
355.584	168.62
355.714	-241.38
355.844	125.62
355.974	-15.38
356.103	-119.38
356.233	-143.38
356.363	25.62
356.492	-250.38
356.622	-298.38
356.752	-35.38
356.881	-358.38
357.011	24.62
357.14	124.62
357.27	-155.38
357.4	33.62
357.529	-169.38
357.659	145.62
357.789	40.62
357.918	-325.38
358.048	-320.38
358.177	-119.38
358.307	-260.38
358.437	-102.38
358.566	-241.38
358.696	67.62
358.825	125.62
358.955	-318.38
359.085	-4.38
359.214	-406.38
359.344	-88.38
359.473	-267.38
359.603	-140.38
359.733	-195.38
359.862	-319.38
359.992	90.62
360.121	-200.38
360.251	-3.38
360.38	-329.38
360.51	89.62
360.639	-199.38
360.769	-60.38
360.898	87.62
361.028	63.62
361.157	-115.38
361.287	-63.38
361.416	-250.38
361.546	-142.38
361.675	-138.38
361.805	-173.38
361.934	16.62
362.064	-170.38
362.193	-208.38
362.323	-280.38
362.452	108.62
362.582	-252.38
362.711	-129.38
362.841	8.62
362.97	-10.38
363.1	-278.38
363.229	-327.38
363.359	-114.38
363.488	-225.38
363.617	-126.38
363.747	-104.38
363.876	-342.38
364.006	-40.38
364.135	-75.38
364.265	-148.38
364.394	-196.38
364.523	304.62
364.653	-257.38
364.782	-25.38
364.912	-267.38
365.041	-297.38
365.17	-264.38
365.3	-83.38
365.429	178.62
365.558	-142.38
365.688	-240.38
365.817	-283.38
365.947	-70.38
366.076	-56.38
366.205	-71.38
366.335	-371.38
366.464	-227.38
366.593	104.62
366.723	-144.38
366.852	-97.38
366.981	-105.38
367.111	-258.38
367.24	-169.38
367.369	-124.38
367.499	522.62
367.628	126.62
367.757	-183.38
367.886	-41.38
368.016	108.62
368.145	-121.38
368.274	-44.38
368.404	-321.38
368.533	-102.38
368.662	14.62
368.791	-211.38
368.921	-387.38
369.05	155.62
369.179	-90.38
369.308	311.62
369.438	-330.38
369.567	-387.38
369.696	-132.38
369.825	-2.38
369.955	-158.38
370.084	-21.38
370.213	-94.38
370.342	-317.38
370.472	-307.38
370.601	412.62
370.73	24.62
370.859	-398.38
370.988	-152.38
371.118	-320.38
371.247	-2.38
371.376	99.62
371.505	-59.38
371.634	-60.38
371.763	-139.38
371.893	-259.38
372.022	-157.38
372.151	-258.38
372.28	-332.38
372.409	-395.38
372.538	-166.38
372.667	-77.38
372.797	125.62
372.926	-345.38
373.055	-41.38
373.184	-111.38
373.313	-236.38
373.442	-42.38
373.571	-234.38
373.7	-164.38
373.83	-54.38
373.959	-412.38
374.088	-173.38
374.217	114.62
374.346	-178.38
374.475	-381.38
374.604	-239.38
374.733	241.62
374.862	-117.38
374.991	-269.38
375.12	-53.38
375.249	-56.38
375.378	-224.38
375.508	-310.38
375.637	-306.38
375.766	65.62
375.895	-207.38
376.024	117.62
376.153	-240.38
376.282	-129.38
376.411	-227.38
376.54	-449.38
376.669	-45.38
376.798	-170.38
376.927	-286.38
377.056	88.62
377.185	-85.38
377.314	81.62
377.443	235.62
377.572	-305.38
377.701	-271.38
377.83	161.62
377.959	-19.38
378.088	1695.62
378.217	151.62
378.346	-201.38
378.474	-379.38
378.603	-288.38
378.732	-65.38
378.861	-200.38
378.99	-298.38
379.119	-387.38
379.248	-93.38
379.377	-154.38
379.506	-175.38
379.635	105.62
379.764	-71.38
379.893	-279.38
380.022	-323.38
380.15	-80.38
380.279	-319.38
380.408	-254.38
380.537	-147.38
380.666	-28.38
380.795	-95.38
380.924	-146.38
381.053	-271.38
381.181	-72.38
381.31	719.62
381.439	-257.38
381.568	-189.38
381.697	-191.38
381.826	-135.38
381.955	-278.38
382.083	-131.38
382.212	-323.38
382.341	14.62
382.47	-227.38
382.599	-147.38
382.727	230.62
382.856	-51.38
382.985	9.62
383.114	-170.38
383.243	-227.38
383.371	-124.38
383.5	-245.38
383.629	-290.38
383.758	-255.38
383.887	-417.38
384.015	-87.38
384.144	-275.38
384.273	-89.38
384.402	-35.38
384.53	-259.38
384.659	-290.38
384.788	-270.38
384.917	-223.38
385.045	-105.38
385.174	-133.38
385.303	-378.38
385.432	26.62
385.56	-115.38
385.689	-184.38
385.818	-63.38
385.946	-1.38
386.075	-219.38
386.204	-285.38
386.332	-151.38
386.461	58.62
386.59	-0.38
386.718	-308.38
386.847	-189.38
386.976	-167.38
387.104	-383.38
387.233	-310.38
387.362	-90.38
387.49	-65.38
387.619	-296.38
387.748	-124.38
387.876	96.62
388.005	-86.38
388.134	121.62
388.262	-353.38
388.391	-230.38
388.52	-49.38
388.648	-301.38
388.777	45.62
388.905	-237.38
389.034	-199.38
389.163	-245.38
389.291	-109.38
389.42	45.62
389.548	99.62
389.677	-123.38
389.805	-93.38
389.934	-62.38
390.063	-294.38
390.191	-353.38
390.32	-227.38
390.448	-169.38
390.577	-301.38
390.705	-306.38
390.834	-169.38
390.962	-317.38
391.091	-281.38
391.22	85.62
391.348	161.62
391.477	-22.38
391.605	-339.38
391.734	-199.38
391.862	-219.38
391.991	-305.38
392.119	-294.38
392.248	-148.38
392.376	-129.38
392.505	-168.38
392.633	-230.38
392.762	292.62
392.89	-307.38
393.018	38.62
393.147	-191.38
393.275	-367.38
393.404	-288.38
393.532	-160.38
393.661	-102.38
393.789	-50.38
393.918	-137.38
394.046	-156.38
394.174	-108.38
394.303	-322.38
394.431	-226.38
394.56	34.62
394.688	-343.38
394.817	-399.38
394.945	97.62
395.073	36.62
395.202	-75.38
395.33	-151.38
395.459	-134.38
395.587	76.62
395.715	74.62
395.844	-92.38
395.972	-397.38
396.1	128.62
396.229	-264.38
396.357	-67.38
396.485	-210.38
396.614	-266.38
396.742	78.62
396.87	-113.38
396.999	-15.38
397.127	-319.38
397.255	-68.38
397.384	90.62
397.512	-372.38
397.64	-276.38
397.769	-148.38
397.897	-41.38
398.025	-155.38
398.154	-82.38
398.282	189.62
398.41	-108.38
398.538	-82.38
398.667	-227.38
398.795	-234.38
398.923	13.62
399.052	-199.38
399.18	-172.38
399.308	-136.38
399.436	168.62
399.565	-306.38
399.693	-52.38
399.821	-141.38
399.949	-193.38
400.078	287.62
400.206	-311.38
400.334	-328.38
400.462	-143.38
400.59	-333.38
400.719	-226.38
400.847	-285.38
400.975	-35.38
401.103	-266.38
401.231	-122.38
401.36	-101.38
401.488	-27.38
401.616	-218.38
401.744	-173.38
401.872	-252.38
402	-28.38
402.129	-203.38
402.257	-286.38
402.385	-181.38
402.513	-148.38
402.641	-183.38
402.769	-147.38
402.897	-249.38
403.026	-339.38
403.154	-374.38
403.282	-312.38
403.41	-203.38
403.538	172.62
403.666	-331.38
403.794	-184.38
403.922	-126.38
404.05	-112.38
404.179	-122.38
404.307	-86.38
404.435	-286.38
404.563	-281.38
404.691	-391.38
404.819	436.62
404.947	-302.38
405.075	-229.38
405.203	-358.38
405.331	-247.38
405.459	-299.38
405.587	-86.38
405.715	-214.38
405.843	-197.38
405.971	-90.38
406.099	96.62
406.227	-41.38
406.355	-186.38
406.483	-373.38
406.611	-26.38
406.739	-326.38
406.867	-311.38
406.995	-244.38
407.123	-195.38
407.251	-398.38
407.379	-321.38
407.507	-17.38
407.635	-135.38
407.763	-441.38
407.891	-393.38
408.019	-8.38
408.147	39.62
408.275	209.62
408.403	-350.38
408.531	-383.38
408.659	220.62
408.787	-91.38
408.915	-211.38
409.043	-230.38
409.171	69.62
409.299	5.62
409.427	89.62
409.554	-348.38
409.682	286.62
409.81	-93.38
409.938	-220.38
410.066	-10.38
410.194	-63.38
410.322	-298.38
410.45	-211.38
410.578	-378.38
410.705	-277.38
410.833	-101.38
410.961	84.62
411.089	340.62
411.217	-166.38
411.345	-182.38
411.473	-260.38
411.6	-82.38
411.728	-204.38
411.856	-338.38
411.984	-318.38
412.112	-54.38
412.239	-77.38
412.367	-211.38
412.495	98.62
412.623	-248.38
412.751	22.62
412.878	-360.38
413.006	-186.38
413.134	71.62
413.262	160.62
413.39	-51.38
413.517	-98.38
413.645	71.62
413.773	-349.38
413.901	180.62
414.028	-194.38
414.156	-151.38
414.284	-266.38
414.412	32.62
414.539	-205.38
414.667	-235.38
414.795	-215.38
414.923	-406.38
415.05	-205.38
415.178	-53.38
415.306	324.62
415.433	-275.38
415.561	45.62
415.689	46.62
415.816	-254.38
415.944	169.62
416.072	-312.38
416.2	-21.38
416.327	252.62
416.455	-257.38
416.583	-227.38
416.71	-261.38
416.838	121.62
416.966	-314.38
417.093	-176.38
417.221	64.62
417.348	-58.38
417.476	-317.38
417.604	-181.38
417.731	-136.38
417.859	44.62
417.987	-92.38
418.114	-264.38
418.242	40.62
418.369	-213.38
418.497	-333.38
418.625	160.62
418.752	-126.38
418.88	-285.38
419.007	179.62
419.135	-70.38
419.263	-237.38
419.39	43.62
419.518	55.62
419.645	19.62
419.773	656.62
419.9	1708.62
420.028	4210.62
420.155	4969.62
420.283	7062.62
420.41	7998.62
420.538	8759.62
420.666	9491.62
420.793	9684.62
420.921	8786.62
421.048	6990.62
421.176	4730.62
421.303	2399.62
421.431	653.62
421.558	-71.38
421.686	216.62
421.813	44.62
421.941	-186.38
422.068	-69.38
422.195	68.62
422.323	50.62
422.45	-341.38
422.578	-85.38
422.705	-233.38
422.833	-177.38
422.96	-258.38
423.088	-3.38
423.215	340.62
423.343	298.62
423.47	-80.38
423.597	218.62
423.725	-95.38
423.852	-98.38
423.98	-53.38
424.107	-354.38
424.234	-111.38
424.362	-216.38
424.489	-242.38
424.617	501.62
424.744	-112.38
424.871	-299.38
424.999	-123.38
425.126	93.62
425.253	-39.38
425.381	-195.38
425.508	-317.38
425.636	-25.38
425.763	-195.38
425.89	-245.38
426.018	-324.38
426.145	-148.38
426.272	-58.38
426.4	34.62
426.527	59.62
426.654	-283.38
426.781	-63.38
426.909	-128.38
427.036	-111.38
427.163	-374.38
427.291	-286.38
427.418	-161.38
427.545	-120.38
427.673	-338.38
427.8	-372.38
427.927	-312.38
428.054	-85.38
428.182	-175.38
428.309	-212.38
428.436	-246.38
428.563	-310.38
428.691	-68.38
428.818	-235.38
428.945	-6.38
429.072	-329.38
429.2	-76.38
429.327	-79.38
429.454	43.62
429.581	-121.38
429.708	-388.38
429.836	-262.38
429.963	-188.38
430.09	-231.38
430.217	-225.38
430.344	-302.38
430.472	-315.38
430.599	-16.38
430.726	-228.38
430.853	-141.38
430.98	-25.38
431.107	-288.38
431.235	-129.38
431.362	-49.38
431.489	-165.38
431.616	207.62
431.743	102.62
431.87	-341.38
431.997	-209.38
432.125	-103.38
432.252	-464.38
432.379	-227.38
432.506	-42.38
432.633	-262.38
432.76	-140.38
432.887	74.62
433.014	-217.38
433.141	-278.38
433.268	-60.38
433.395	-242.38
433.523	-186.38
433.65	-174.38
433.777	-219.38
433.904	-189.38
434.031	-361.38
434.158	-83.38
434.285	33.62
434.412	-350.38
434.539	-148.38
434.666	-352.38
434.793	-268.38
434.92	-292.38
435.047	-28.38
435.174	-160.38
435.301	-7.38
435.428	253.62
435.555	211.62
435.682	-66.38
435.809	-322.38
435.936	98.62
436.063	-261.38
436.19	105.62
436.317	-277.38
436.444	14.62
436.571	-247.38
436.698	-50.38
436.825	82.62
436.952	-5.38
437.079	-86.38
437.206	-12.38
437.333	-278.38
437.46	-200.38
437.587	-149.38
437.714	-326.38
437.84	-180.38
437.967	-357.38
438.094	-376.38
438.221	27.62
438.348	-178.38
438.475	7999.62
438.602	-333.38
438.729	-412.38
438.856	-279.38
438.983	-310.38
439.109	-7.38
439.236	21.62
439.363	-410.38
439.49	-217.38
439.617	-139.38
439.744	-263.38
439.871	429.62
439.997	-244.38
440.124	-94.38
440.251	-83.38
440.378	-236.38
440.505	-212.38
440.632	81.62
440.758	117.62
440.885	235.62
441.012	-255.38
441.139	37.62
441.266	-318.38
441.392	-225.38
441.519	-283.38
441.646	-348.38
441.773	-51.38
441.9	221.62
442.026	-216.38
442.153	-109.38
442.28	-55.38
442.407	-284.38
442.533	20.62
442.66	-57.38
442.787	-130.38
442.914	-261.38
443.04	-243.38
443.167	-147.38
443.294	-121.38
443.421	-84.38
443.547	-326.38
443.674	-173.38
443.801	-42.38
443.927	72.62
444.054	418.62
444.181	77.62
444.307	67.62
444.434	-72.38
444.561	-327.38
444.688	-359.38
444.814	-19.38
444.941	-203.38
445.068	-332.38
445.194	203.62
445.321	-281.38
445.447	212.62
445.574	-383.38
445.701	-366.38
445.827	-173.38
445.954	-409.38
446.081	-21.38
446.207	-291.38
446.334	-136.38
446.461	-212.38
446.587	-440.38
446.714	-1.38
446.84	51.62
446.967	-271.38
447.094	-208.38
447.22	85.62
447.347	-154.38
447.473	-281.38
447.6	-82.38
447.726	-374.38
447.853	-104.38
447.98	-144.38
448.106	-91.38
448.233	-133.38
448.359	-215.38
448.486	-34.38
448.612	-224.38
448.739	-57.38
448.865	104.62
448.992	216.62
449.118	-241.38
449.245	-325.38
449.371	-310.38
449.498	-152.38
449.624	-8.38
449.751	-139.38
449.877	-267.38
450.004	-123.38
450.13	-130.38
450.257	-321.38
450.383	-164.38
450.51	-384.38
450.636	-234.38
450.763	-232.38
450.889	-259.38
451.016	-425.38
451.142	-62.38
451.269	-277.38
451.395	236.62
451.521	-190.38
451.648	-274.38
451.774	-109.38
451.901	-374.38
452.027	-195.38
452.154	52.62
452.28	-183.38
452.406	-271.38
452.533	-239.38
452.659	-343.38
452.785	-208.38
452.912	-324.38
453.038	-340.38
453.165	-41.38
453.291	91.62
453.417	156.62
453.544	-337.38
453.67	-228.38
453.796	121.62
453.923	-321.38
454.049	-235.38
454.175	-271.38
454.302	-256.38
454.428	-33.38
454.554	-92.38
454.681	-282.38
454.807	-305.38
454.933	273.62
455.06	-88.38
455.186	-169.38
455.312	82.62
455.439	45.62
455.565	-337.38
455.691	-331.38
455.817	-1.38
455.944	82.62
456.07	-158.38
456.196	-64.38
456.322	-392.38
456.449	-382.38
456.575	-172.38
456.701	-266.38
456.827	-307.38
456.954	-330.38
457.08	-276.38
457.206	-419.38
457.332	-148.38
457.459	-354.38
457.585	-291.38
457.711	-278.38
457.837	-1.38
457.963	-115.38
458.09	-292.38
458.216	-333.38
458.342	-176.38
458.468	-192.38
458.594	-161.38
458.721	-99.38
458.847	-127.38
458.973	-322.38
459.099	-200.38
459.225	-230.38
459.351	-212.38
459.477	-68.38
459.604	-337.38
459.73	-244.38
459.856	-309.38
459.982	-141.38
460.108	-414.38
460.234	-429.38
460.36	-184.38
460.486	-24.38
460.613	-291.38
460.739	67.62
460.865	-269.38
460.991	201.62
461.117	143.62
461.243	-295.38
461.369	-300.38
461.495	-221.38
461.621	-158.38
461.747	-101.38
461.873	-39.38
461.999	-303.38
462.125	-168.38
462.252	25.62
462.378	-113.38
462.504	-15.38
462.63	-102.38
462.756	-322.38
462.882	-193.38
463.008	-218.38
463.134	79.62
463.26	-359.38
463.386	-224.38
463.512	-108.38
463.638	-225.38
463.764	-340.38
463.89	-179.38
464.016	63.62
464.142	-60.38
464.268	-331.38
464.394	-240.38
464.52	-354.38
464.645	-98.38
464.771	2.62
464.897	-268.38
465.023	-259.38
465.149	-131.38
465.275	-366.38
465.401	-302.38
465.527	94.62
465.653	-134.38
465.779	47.62
465.905	-346.38
466.031	-141.38
466.157	-288.38
466.282	-230.38
466.408	-285.38
466.534	-129.38
466.66	-463.38
466.786	-175.38
466.912	-97.38
467.038	-170.38
467.164	-201.38
467.289	-221.38
467.415	-169.38
467.541	-172.38
467.667	-195.38
467.793	-225.38
467.919	-75.38
468.045	164.62
468.17	-298.38
468.296	-165.38
468.422	-199.38
468.548	20.62
468.674	-403.38
468.799	-293.38
468.925	-226.38
469.051	-307.38
469.177	-389.38
469.303	-417.38
469.428	-50.38
469.554	-254.38
469.68	-296.38
469.806	-75.38
469.931	-157.38
470.057	334.62
470.183	-482.38
470.309	-268.38
470.434	140.62
470.56	-186.38
470.686	-89.38
470.812	-169.38
470.937	-321.38
471.063	-267.38
471.189	-67.38
471.315	47.62
471.44	-130.38
471.566	-204.38
471.692	67.62
471.817	-281.38
471.943	-154.38
472.069	-38.38
472.194	-209.38
472.32	-266.38
472.446	-23.38
472.571	-318.38
472.697	-292.38
472.823	-112.38
472.948	-330.38
473.074	-138.38
473.2	-185.38
473.325	-333.38
473.451	-193.38
473.577	-199.38
473.702	-441.38
473.828	-189.38
473.953	-371.38
474.079	-105.38
474.205	-362.38
474.33	-329.38
474.456	-246.38
474.581	172.62
474.707	-226.38
474.833	-248.38
474.958	-58.38
475.084	9.62
475.209	-239.38
475.335	-292.38
475.46	-104.38
475.586	-208.38
475.712	-79.38
475.837	-232.38
475.963	-224.38
476.088	-391.38
476.214	-276.38
476.339	-240.38
476.465	-267.38
476.59	-363.38
476.716	102.62
476.841	-318.38
476.967	218.62
477.092	-221.38
477.218	-131.38
477.343	-307.38
477.469	257.62
477.594	-254.38
477.72	-335.38
477.845	-105.38
477.971	-242.38
478.096	-125.38
478.222	-229.38
478.347	3260.62
478.472	18.62
478.598	-285.38
478.723	-283.38
478.849	1.62
478.974	-76.38
479.1	-307.38
479.225	-123.38
479.35	-264.38
479.476	-50.38
479.601	-277.38
479.727	34.62
479.852	-301.38
479.977	-53.38
480.103	-165.38
480.228	163.62
480.354	-206.38
480.479	64.62
480.604	-253.38
480.73	-280.38
480.855	-424.38
480.98	40.62
481.106	-382.38
481.231	-411.38
481.356	-292.38
481.482	-443.38
481.607	-332.38
481.732	-480.38
481.858	-207.38
481.983	-295.38
482.108	-281.38
482.234	-399.38
482.359	-254.38
482.484	108.62
482.61	-289.38
482.735	-152.38
482.86	-383.38
482.985	-210.38
483.111	-184.38
483.236	-76.38
483.361	-237.38
483.486	-305.38
483.612	9.62
483.737	-411.38
483.862	-183.38
483.987	-58.38
484.113	-420.38
484.238	-37.38
484.363	-362.38
484.488	-246.38
484.614	-45.38
484.739	-223.38
484.864	65.62
484.989	440.62
485.114	-106.38
485.24	-177.38
485.365	-218.38
485.49	-417.38
485.615	-21.38
485.74	-204.38
485.865	-101.38
485.991	-103.38
486.116	-72.38
486.241	-396.38
486.366	-353.38
486.491	-57.38
486.616	-271.38
486.742	-234.38
486.867	-186.38
486.992	-360.38
487.117	-286.38
487.242	-317.38
487.367	-443.38
487.492	-214.38
487.617	-25.38
487.742	-173.38
487.868	-292.38
487.993	-64.38
488.118	-84.38
488.243	-119.38
488.368	-269.38
488.493	-405.38
488.618	-277.38
488.743	-235.38
488.868	-306.38
488.993	-205.38
489.118	23.62
489.243	-184.38
489.368	-282.38
489.493	42.62
489.618	-141.38
489.743	-304.38
489.868	-190.38
489.993	-278.38
490.118	-391.38
490.243	359.62
490.368	-225.38
490.493	-19.38
490.618	16.62
490.743	-415.38
490.868	-161.38
490.993	-155.38
491.118	9.62
491.243	-320.38
491.368	-147.38
491.493	-4.38
491.618	-145.38
491.743	-241.38
491.868	-277.38
491.993	-219.38
492.118	-270.38
492.243	-122.38
492.368	-70.38
492.493	-259.38
492.618	139.62
492.743	-241.38
492.867	51.62
492.992	-164.38
493.117	-21.38
493.242	-275.38
493.367	-160.38
493.492	18.62
493.617	-243.38
493.742	72.62
493.867	-240.38
493.991	-390.38
494.116	-168.38
494.241	-141.38
494.366	-232.38
494.491	-80.38
494.616	75.62
494.74	-293.38
494.865	-361.38
494.99	-255.38
495.115	-216.38
495.24	-181.38
495.365	-257.38
495.489	-236.38
495.614	-94.38
495.739	-221.38
495.864	-267.38
495.989	-377.38
496.113	-18.38
496.238	-126.38
496.363	-269.38
496.488	-343.38
496.612	-10.38
496.737	-270.38
496.862	-197.38
496.987	-242.38
497.111	-306.38
497.236	-325.38
497.361	-308.38
497.486	52.62
497.61	12.62
497.735	-171.38
497.86	-41.38
497.984	-58.38
498.109	-389.38
498.234	-324.38
498.359	-273.38
498.483	-128.38
498.608	-162.38
498.733	-248.38
498.857	-342.38
498.982	-176.38
499.107	-385.38
499.231	-174.38
499.356	-238.38
499.481	109.62
499.605	-486.38
499.73	-375.38
499.855	12.62
499.979	-289.38
500.104	-231.38
500.228	160.62
500.353	-189.38
500.478	-347.38
500.602	-149.38
500.727	90.62
500.852	-99.38
500.976	-444.38
501.101	-246.38
501.225	134.62
501.35	-311.38
501.474	-318.38
501.599	-17.38
501.724	-214.38
501.848	-177.38
501.973	84.62
502.097	-376.38
502.222	-410.38
502.346	-66.38
502.471	-112.38
502.595	-267.38
502.72	-357.38
502.844	-321.38
502.969	-221.38
503.094	111.62
503.218	-376.38
503.343	-251.38
503.467	-290.38
503.592	-216.38
503.716	-250.38
503.841	-95.38
503.965	175.62
504.089	-216.38
504.214	-377.38
504.338	-214.38
504.463	20.62
504.587	-112.38
504.712	-127.38
504.836	-197.38
504.961	226.62
505.085	132.62
505.21	-289.38
505.334	-269.38
505.458	224.62
505.583	-374.38
505.707	-73.38
505.832	-252.38
505.956	-135.38
506.08	-293.38
506.205	-215.38
506.329	92.62
506.454	-374.38
506.578	-135.38
506.702	-299.38
506.827	110.62
506.951	-61.38
507.076	-178.38
507.2	-368.38
507.324	-62.38
507.449	53.62
507.573	-190.38
507.697	-274.38
507.822	-164.38
507.946	-201.38
508.07	-411.38
508.195	-209.38
508.319	-195.38
508.443	-143.38
508.567	-425.38
508.692	-361.38
508.816	-320.38
508.94	-168.38
509.065	-435.38
509.189	-61.38
509.313	-99.38
509.437	-4.38
509.562	-219.38
509.686	-145.38
509.81	-211.38
509.935	-101.38
510.059	38.62
510.183	-338.38
510.307	-395.38
510.431	2.62
510.556	-196.38
510.68	-257.38
510.804	-424.38
510.928	-188.38
511.053	-401.38
511.177	-374.38
511.301	-208.38
511.425	-248.38
511.549	-139.38
511.674	-174.38
511.798	-162.38
511.922	-85.38
512.046	175.62
512.17	-215.38
512.294	-355.38
512.419	-121.38
512.543	-61.38
512.667	-201.38
512.791	-305.38
512.915	-92.38
513.039	-217.38
513.163	-52.38
513.288	161.62
513.412	-246.38
513.536	45.62
513.66	-312.38
513.784	-231.38
513.908	-120.38
514.032	-181.38
514.156	-28.38
514.28	-43.38
514.404	-189.38
514.528	-178.38
514.653	-73.38
514.777	14.62
514.901	-86.38
515.025	99.62
515.149	-211.38
515.273	-112.38
515.397	-200.38
515.521	-187.38
515.645	-208.38
515.769	-307.38
515.893	-233.38
516.017	-259.38
516.141	-410.38
516.265	-254.38
516.389	-262.38
516.513	-155.38
516.637	-303.38
516.761	-462.38
516.885	-290.38
517.009	-218.38
517.133	-130.38
517.257	-236.38
517.381	-18.38
517.505	-8.38
517.629	85.62
517.753	-235.38
517.877	-375.38
518.001	-224.38
518.125	-233.38
518.248	-71.38
518.372	-173.38
518.496	-379.38
518.62	-110.38
518.744	-194.38
518.868	-114.38
518.992	-174.38
519.116	-323.38
519.24	417.62
519.364	19.62
519.488	-165.38
519.611	-402.38
519.735	-214.38
519.859	-191.38
519.983	-33.38
520.107	-262.38
520.231	2.62
520.355	-155.38
520.478	-290.38
520.602	-333.38
520.726	69.62
520.85	-215.38
520.974	0.62
521.098	-268.38
521.221	-336.38
521.345	48.62
521.469	-275.38
521.593	-207.38
521.717	14.62
521.84	-181.38
521.964	-305.38
522.088	-268.38
522.212	-206.38
522.335	-411.38
522.459	-288.38
522.583	208.62
522.707	-376.38
522.83	-442.38
522.954	-318.38
523.078	-309.38
523.202	-10.38
523.325	-255.38
523.449	-170.38
523.573	-172.38
523.697	-308.38
523.82	-168.38
523.944	-213.38
524.068	-203.38
524.191	-222.38
524.315	-403.38
524.439	-169.38
524.562	-19.38
524.686	-261.38
524.81	-343.38
524.933	-243.38
525.057	-256.38
525.181	-119.38
525.304	-375.38
525.428	86.62
525.552	-353.38
525.675	-181.38
525.799	-289.38
525.923	-165.38
526.046	-69.38
526.17	-423.38
526.293	-351.38
526.417	-142.38
526.541	-24.38
526.664	-249.38
526.788	-232.38
526.911	-100.38
527.035	-353.38
527.159	-232.38
527.282	-243.38
527.406	-303.38
527.529	-58.38
527.653	-364.38
527.776	-111.38
527.9	-276.38
528.024	-286.38
528.147	-228.38
528.271	44.62
528.394	-8.38
528.518	17.62
528.641	-366.38
528.765	-129.38
528.888	-184.38
529.012	-121.38
529.135	-260.38
529.259	74.62
529.382	-216.38
529.506	-320.38
529.629	-103.38
529.753	-366.38
529.876	103.62
530	41.62
530.123	-140.38
530.247	-298.38
530.37	-261.38
530.493	-167.38
530.617	-336.38
530.74	40.62
530.864	-55.38
530.987	-402.38
531.111	-104.38
531.234	-304.38
531.357	-0.38
531.481	17.62
531.604	33.62
531.728	-372.38
531.851	-106.38
531.974	-121.38
532.098	-214.38
532.221	-296.38
532.345	-237.38
532.468	-373.38
532.591	160.62
532.715	-219.38
532.838	-236.38
532.961	-225.38
533.085	-333.38
533.208	-148.38
533.331	-405.38
533.455	-26.38
533.578	-221.38
533.701	-131.38
533.825	17.62
533.948	-274.38
534.071	-243.38
534.195	-61.38
534.318	-317.38
534.441	-273.38
534.564	-97.38
534.688	-264.38
534.811	-54.38
534.934	-226.38
535.058	-129.38
535.181	37.62
535.304	-34.38
535.427	-300.38
535.551	-382.38
535.674	-226.38
535.797	-55.38
535.92	-37.38
536.043	-341.38
536.167	-356.38
536.29	-99.38
536.413	-129.38
536.536	-339.38
536.66	-231.38
536.783	-109.38
536.906	-131.38
537.029	-251.38
537.152	-252.38
537.275	-222.38
537.399	86.62
537.522	-418.38
537.645	-212.38
537.768	-244.38
537.891	-137.38
538.014	-191.38
538.138	-306.38
538.261	-241.38
538.384	-185.38
538.507	-334.38
538.63	-234.38
538.753	101.62
538.876	-125.38
538.999	-313.38
539.123	-82.38
539.246	158.62
539.369	226.62
539.492	-274.38
539.615	-353.38
539.738	167.62
539.861	-258.38
539.984	-174.38
540.107	-132.38
540.23	-258.38
540.353	-325.38
540.476	-471.38
540.599	-96.38
540.722	-341.38
540.846	-134.38
540.969	-404.38
541.092	-149.38
541.215	-341.38
541.338	-134.38
541.461	-315.38
541.584	-198.38
541.707	-206.38
541.83	-294.38
541.953	-125.38
542.076	-81.38
542.199	-144.38
542.322	75.62
542.445	111.62
542.567	-260.38
542.69	-116.38
542.813	-245.38
542.936	-79.38
543.059	-173.38
543.182	242.62
543.305	81.62
543.428	-119.38
543.551	-201.38
543.674	104.62
543.797	-53.38
543.92	-231.38
544.043	269.62
544.166	-306.38
544.288	-217.38
544.411	-88.38
544.534	-319.38
544.657	-153.38
544.78	-243.38
544.903	-68.38
545.026	-196.38
545.149	-307.38
545.271	-343.38
545.394	-259.38
545.517	-399.38
545.64	401.62
545.763	-216.38
545.886	-282.38
546.008	-104.38
546.131	-15.38
546.254	-192.38
546.377	-410.38
546.5	-35.38
546.623	-43.38
546.745	-337.38
546.868	-242.38
546.991	21.62
547.114	-173.38
547.236	-187.38
547.359	-328.38
547.482	-125.38
547.605	-294.38
547.728	-252.38
547.85	-346.38
547.973	-273.38
548.096	-211.38
548.219	-98.38
548.341	-231.38
548.464	-365.38
548.587	-180.38
548.709	-233.38
548.832	-125.38
548.955	262.62
549.078	18.62
549.2	-278.38
549.323	-254.38
549.446	143.62
549.568	-148.38
549.691	-49.38
549.814	-36.38
549.936	-289.38
550.059	-207.38
550.182	-329.38
550.304	-384.38
550.427	-185.38
550.55	-261.38
550.672	-294.38
550.795	226.62
550.917	-270.38
551.04	-188.38
551.163	-92.38
551.285	29.62
551.408	2.62
551.531	333.62
551.653	-350.38
551.776	-98.38
551.898	-84.38
552.021	-116.38
552.143	-195.38
552.266	-212.38
552.389	-178.38
552.511	-353.38
552.634	-365.38
552.756	-321.38
552.879	237.62
553.001	21.62
553.124	-411.38
553.246	-270.38
553.369	39.62
553.492	-183.38
553.614	19.62
553.737	-473.38
553.859	-20.38
553.982	18.62
554.104	-126.38
554.227	-301.38
554.349	-183.38
554.472	-183.38
554.594	-456.38
554.716	38.62
554.839	-57.38
554.961	-91.38
555.084	-321.38
555.206	-137.38
555.329	-372.38
555.451	-353.38
555.574	-88.38
555.696	-334.38
555.819	-146.38
555.941	-174.38
556.063	-32.38
556.186	-200.38
556.308	-82.38
556.431	209.62
556.553	-26.38
556.675	-261.38
556.798	-207.38
556.92	-42.38
557.043	-305.38
557.165	-384.38
557.287	6.62
557.41	-181.38
557.532	-144.38
557.654	-246.38
557.777	-15.38
557.899	-164.38
558.021	-224.38
558.144	38.62
558.266	56.62
558.388	249.62
558.511	-225.38
558.633	-166.38
558.755	-254.38
558.878	-275.38
559	-30.38
559.122	-423.38
559.244	-273.38
559.367	-185.38
559.489	10.62
559.611	105.62
559.734	-147.38
559.856	-139.38
559.978	-146.38
560.1	-159.38
560.223	-155.38
560.345	60.62
560.467	-366.38
560.589	-214.38
560.712	-183.38
560.834	207.62
560.956	-326.38
561.078	-225.38
561.2	-115.38
561.323	93.62
561.445	-379.38
561.567	-250.38
561.689	-314.38
561.811	-83.38
561.934	-217.38
562.056	-202.38
562.178	-89.38
562.3	-232.38
562.422	-90.38
562.544	-174.38
562.666	41.62
562.789	-103.38
562.911	-132.38
563.033	-36.38
563.155	-15.38
563.277	-265.38
563.399	-431.38
563.521	-218.38
563.643	-288.38
563.766	-173.38
563.888	24.62
564.01	-153.38
564.132	-243.38
564.254	-364.38
564.376	69.62
564.498	-150.38
564.62	135.62
564.742	-136.38
564.864	-403.38
564.986	-152.38
565.108	252.62
565.23	-269.38
565.352	-17.38
565.474	-122.38
565.597	152.62
565.719	122.62
565.841	-373.38
565.963	-106.38
566.085	-113.38
566.207	-195.38
566.329	13.62
566.451	43.62
566.573	-221.38
566.695	-196.38
566.817	143.62
566.938	-363.38
567.06	-172.38
567.182	-107.38
567.304	-167.38
567.426	-362.38
567.548	31.62
567.67	-106.38
567.792	-188.38
567.914	-277.38
568.036	-177.38
568.158	-158.38
568.28	-296.38
568.402	-73.38
568.524	-187.38
568.646	-285.38
568.767	-242.38
568.889	9.62
569.011	-170.38
569.133	-228.38
569.255	-386.38
569.377	-350.38
569.499	-151.38
569.621	-235.38
569.742	220.62
569.864	2.62
569.986	301.62
570.108	-14.38
570.23	-335.38
570.352	58.62
570.473	-110.38
570.595	-194.38
570.717	-343.38
570.839	-127.38
570.961	-11.38
571.082	-201.38
571.204	-306.38
571.326	-290.38
571.448	9.62
571.57	19.62
571.691	-154.38
571.813	-127.38
571.935	52.62
572.057	-130.38
572.178	-320.38
572.3	74.62
572.422	143.62
572.544	153.62
572.665	-268.38
572.787	-301.38
572.909	103.62
573.031	-40.38
573.152	-341.38
573.274	-38.38
573.396	-51.38
573.517	-50.38
573.639	-451.38
573.761	-286.38
573.882	-136.38
574.004	19.62
574.126	-293.38
574.247	-24.38
574.369	-39.38
574.491	-147.38
574.612	-320.38
574.734	-128.38
574.856	-141.38
574.977	-39.38
575.099	-153.38
575.221	-179.38
575.342	-189.38
575.464	-102.38
575.585	-78.38
575.707	-334.38
575.829	108.62
575.95	54.62
576.072	-228.38
576.193	-289.38
576.315	-178.38
576.437	-180.38
576.558	-167.38
576.68	-172.38
576.801	197.62
576.923	-305.38
577.044	84.62
577.166	-417.38
577.287	-144.38
577.409	-193.38
577.531	-181.38
577.652	-52.38
577.774	-380.38
577.895	-149.38
578.017	-299.38
578.138	-265.38
578.26	-165.38
578.381	-32.38
578.503	-278.38
578.624	-298.38
578.746	-371.38
578.867	-192.38
578.988	-122.38
579.11	141.62
579.231	-71.38
579.353	-217.38
579.474	-157.38
579.596	-240.38
579.717	27.62
579.839	-141.38
579.96	-442.38
580.081	-91.38
580.203	-176.38
580.324	-102.38
580.446	-52.38
580.567	-180.38
580.688	177.62
580.81	-306.38
580.931	-231.38
581.053	-370.38
581.174	-159.38
581.295	-217.38
581.417	-62.38
581.538	-27.38
581.659	-52.38
581.781	-151.38
581.902	-284.38
582.024	-328.38
582.145	-307.38
582.266	-289.38
582.388	-173.38
582.509	-340.38
582.63	-128.38
582.751	-251.38
582.873	-215.38
582.994	-215.38
583.115	-192.38
583.237	-55.38
583.358	-275.38
583.479	-402.38
583.6	11.62
583.722	-183.38
583.843	-322.38
583.964	-63.38
584.086	-233.38
584.207	-26.38
584.328	-358.38
584.449	-100.38
584.57	-112.38
584.692	-118.38
584.813	823.62
584.934	-126.38
585.055	-313.38
585.177	-14.38
585.298	-150.38
585.419	-353.38
585.54	173.62
585.661	-25.38
585.783	-128.38
585.904	-260.38
586.025	60.62
586.146	-308.38
586.267	-246.38
586.388	-164.38
586.51	272.62
586.631	-321.38
586.752	-332.38
586.873	-230.38
586.994	-352.38
587.115	-325.38
587.236	-254.38
587.357	-413.38
587.479	-265.38
587.6	18.62
587.721	-217.38
587.842	-292.38
587.963	138.62
588.084	72.62
588.205	-329.38
588.326	-203.38
588.447	-137.38
588.568	-176.38
588.689	-153.38
588.81	-104.38
588.931	-192.38
589.052	-251.38
589.174	-323.38
589.295	-122.38
589.416	-84.38
589.537	36.62
589.658	-227.38
589.779	-400.38
589.9	39.62
590.021	-235.38
590.142	-252.38
590.263	-387.38
590.384	-123.38
590.505	175.62
590.626	-315.38
590.747	-147.38
590.867	-65.38
590.988	-73.38
591.109	-184.38
591.23	65.62
591.351	-22.38
591.472	-128.38
591.593	-234.38
591.714	-121.38
591.835	-229.38
591.956	-204.38
592.077	-403.38
592.198	-196.38
592.319	-111.38
592.44	-0.38
592.56	-271.38
592.681	-372.38
592.802	-78.38
592.923	-201.38
593.044	-302.38
593.165	-326.38
593.286	-51.38
593.407	-272.38
593.527	34.62
593.648	-285.38
593.769	-36.38
593.89	94.62
594.011	-170.38
594.132	-279.38
594.252	-115.38
594.373	-295.38
594.494	-406.38
594.615	-193.38
594.736	-208.38
594.856	52.62
594.977	-327.38
595.098	-113.38
595.219	-315.38
595.34	-105.38
595.46	-333.38
595.581	169.62
595.702	-154.38
595.823	-365.38
595.943	-106.38
596.064	-170.38
596.185	70.62
596.306	-386.38
596.426	-278.38
596.547	-350.38
596.668	-55.38
596.788	-108.38
596.909	-133.38
597.03	-86.38
597.151	-149.38
597.271	-252.38
597.392	-207.38
597.513	-66.38
597.633	-12.38
597.754	-107.38
597.875	-151.38
597.995	89.62
598.116	-117.38
598.237	-181.38
598.357	-294.38
598.478	-282.38
598.599	183.62
598.719	-163.38
598.84	-334.38
598.96	-275.38
599.081	-157.38
599.202	-157.38
599.322	-310.38
599.443	-324.38
599.563	-81.38
599.684	40.62
599.805	-257.38
599.925	-379.38
600.046	210.62
600.166	-207.38
600.287	-91.38
600.407	-181.38
600.528	67.62
600.649	-38.38
600.769	-168.38
600.89	-356.38
601.01	-28.38
601.131	-232.38
601.251	122.62
601.372	-145.38
601.492	-232.38
601.613	-297.38
601.733	-258.38
601.854	205.62
601.974	281.62
602.095	134.62
602.215	-316.38
602.336	-338.38
602.456	219.62
602.577	-244.38
602.697	701.62
602.817	-20.38
602.938	-132.38
603.058	-46.38
603.179	-338.38
603.299	-319.38
603.42	-349.38
603.54	-67.38
603.66	-371.38
603.781	-100.38
603.901	-212.38
604.022	119.62
604.142	-161.38
604.262	-149.38
604.383	-274.38
604.503	102.62
604.624	-280.38
604.744	-101.38
604.864	-38.38
604.985	-211.38
605.105	-121.38
605.225	-132.38
605.346	-139.38
605.466	19.62
605.586	218.62
605.707	271.62
605.827	-315.38
605.947	-180.38
606.068	-227.38
606.188	-196.38
606.308	-232.38
606.429	42.62
606.549	-244.38
606.669	-362.38
606.789	-276.38
606.91	-31.38
607.03	-290.38
607.15	-241.38
607.27	-93.38
607.391	3.62
607.511	-289.38
607.631	-302.38
607.751	133.62
607.872	-8.38
607.992	-336.38
608.112	3.62
608.232	-268.38
608.353	-290.38
608.473	-244.38
608.593	94.62
608.713	318.62
608.833	-146.38
608.954	-254.38
609.074	-243.38
609.194	-311.38
609.314	203.62
609.434	-12.38
609.554	-170.38
609.675	-56.38
609.795	-254.38
609.915	-310.38
610.035	264.62
610.155	-187.38
610.275	-218.38
610.395	-35.38
610.516	-343.38
610.636	-102.38
610.756	-83.38
610.876	-31.38
610.996	-294.38
611.116	138.62
611.236	-354.38
611.356	-260.38
611.476	-145.38
611.596	-121.38
611.716	98.62
611.836	-331.38
611.957	-328.38
612.077	-142.38
612.197	-64.38
612.317	-298.38
612.437	41.62
612.557	59.62
612.677	-150.38
612.797	-117.38
612.917	-349.38
613.037	-40.38
613.157	-125.38
613.277	-100.38
613.397	119.62
613.517	139.62
613.637	-261.38
613.757	-158.38
613.877	-292.38
613.997	-98.38
614.117	-253.38
614.237	-235.38
614.356	-101.38
614.476	42.62
614.596	15.62
614.716	-172.38
614.836	-187.38
614.956	-0.38
615.076	-116.38
615.196	-356.38
615.316	-138.38
615.436	-35.38
615.556	151.62
615.676	198.62
615.795	-80.38
615.915	-114.38
616.035	-252.38
616.155	-201.38
616.275	-303.38
616.395	-217.38
616.515	11.62
616.635	-424.38
616.754	-434.38
616.874	-31.38
616.994	-141.38
617.114	223.62
617.234	70.62
617.354	48.62
617.473	345.62
617.593	-246.38
617.713	-143.38
617.833	-38.38
617.953	-65.38
618.072	-478.38
618.192	-262.38
618.312	88.62
618.432	71.62
618.551	-294.38
618.671	-264.38
618.791	-10.38
618.911	-110.38
619.03	-182.38
619.15	-148.38
619.27	-169.38
619.39	-235.38
619.509	-169.38
619.629	-193.38
619.749	-271.38
619.868	-105.38
619.988	-354.38
620.108	-227.38
620.228	716.62
620.347	-103.38
620.467	-275.38
620.587	-315.38
620.706	76.62
620.826	-253.38
620.946	-290.38
621.065	1.62
621.185	254.62
621.305	-200.38
621.424	-216.38
621.544	-413.38
621.663	-25.38
621.783	-187.38
621.903	182.62
622.022	-308.38
622.142	-124.38
622.261	162.62
622.381	-134.38
622.501	-52.38
622.62	-183.38
622.74	-100.38
622.859	-186.38
622.979	107.62
623.099	-207.38
623.218	-16.38
623.338	117.62
623.457	-61.38
623.577	-235.38
623.696	-69.38
623.816	-371.38
623.935	-302.38
624.055	-253.38
624.174	-114.38
624.294	-173.38
624.413	-382.38
624.533	-79.38
624.652	77.62
624.772	-285.38
624.891	-384.38
625.011	17.62
625.13	-198.38
625.25	-360.38
625.369	-259.38
625.489	-189.38
625.608	-260.38
625.728	-153.38
625.847	-186.38
625.966	-290.38
626.086	-260.38
626.205	-350.38
626.325	-100.38
626.444	-112.38
626.564	178.62
626.683	17.62
626.802	10.62
626.922	133.62
627.041	-44.38
627.161	-178.38
627.28	24.62
627.399	41.62
627.519	-78.38
627.638	-389.38
627.757	-276.38
627.877	-161.38
627.996	-157.38
628.115	-29.38
628.235	-64.38
628.354	-305.38
628.473	-90.38
628.593	77.62
628.712	-151.38
628.831	-97.38
628.951	-334.38
629.07	81.62
629.189	-124.38
629.309	-157.38
629.428	192.62
629.547	-329.38
629.666	-32.38
629.786	-116.38
629.905	-276.38
630.024	-27.38
630.143	-106.38
630.263	-123.38
630.382	251.62
630.501	-234.38
630.62	-222.38
630.74	-295.38
630.859	81.62
630.978	-185.38
631.097	-345.38
631.216	-284.38
631.336	166.62
631.455	-276.38
631.574	-211.38
631.693	-43.38
631.812	-168.38
631.932	-443.38
632.051	102.62
632.17	258.62
632.289	41.62
632.408	-236.38
632.527	-150.38
632.646	-113.38
632.766	-227.38
632.885	169.62
633.004	-363.38
633.123	-134.38
633.242	-246.38
633.361	628.62
633.48	-303.38
633.599	-230.38
633.718	56.62
633.838	-101.38
633.957	-399.38
634.076	-67.38
634.195	-168.38
634.314	-51.38
634.433	-7.38
634.552	-217.38
634.671	-131.38
634.79	204.62
634.909	55.62
635.028	-61.38
635.147	10.62
635.266	-294.38
635.385	-99.38
635.504	-307.38
635.623	-19.38
635.742	-369.38
635.861	-368.38
635.98	-82.38
636.099	-214.38
636.218	-170.38
636.337	-148.38
636.456	270.62
636.575	8.62
636.694	-150.38
636.813	-354.38
636.932	-319.38
637.051	-90.38
637.17	-402.38
637.289	-127.38
637.408	-330.38
637.526	-88.38
637.645	-464.38
637.764	-359.38
637.883	-202.38
638.002	52.62
638.121	358.62
638.24	-289.38
638.359	48.62
638.478	-171.38
638.597	-304.38
638.715	389.62
638.834	-141.38
638.953	5.62
639.072	-334.38
639.191	-383.38
639.31	6.62
639.428	-108.38
639.547	-113.38
639.666	-20.38
639.785	-33.38
639.904	-106.38
640.023	-379.38
640.141	-207.38
640.26	-174.38
640.379	-3.38
640.498	-414.38
640.616	-124.38
640.735	-135.38
640.854	55.62
640.973	-346.38
641.092	-55.38
641.21	-49.38
641.329	-154.38
641.448	-17.38
641.567	202.62
641.685	-134.38
641.804	-160.38
641.923	-137.38
642.041	-287.38
642.16	-163.38
642.279	93.62
642.398	-217.38
642.516	-294.38
642.635	108.62
642.754	-168.38
642.872	21.62
642.991	36.62
643.11	-199.38
643.228	-275.38
643.347	-353.38
643.466	-376.38
643.584	31.62
643.703	263.62
643.821	-155.38
643.94	-102.38
644.059	-7.38
644.177	69.62
644.296	-336.38
644.415	-236.38
644.533	-90.38
644.652	8.62
644.77	-345.38
644.889	-327.38
645.008	21.62
645.126	-256.38
645.245	-24.38
645.363	1.62
645.482	-72.38
645.6	-140.38
645.719	-193.38
645.837	-234.38
645.956	-56.38
646.074	-291.38
646.193	-283.38
646.312	-30.38
646.43	164.62
646.549	218.62
646.667	-466.38
646.786	-316.38
646.904	30.62
647.023	3.62
647.141	-307.38
647.26	-25.38
647.378	396.62
647.496	-145.38
647.615	-94.38
647.733	-130.38
647.852	207.62
647.97	-200.38
648.089	-18.38
648.207	-29.38
648.326	120.62
648.444	-147.38
648.562	-181.38
648.681	-94.38
648.799	-157.38
648.918	-81.38
649.036	-130.38
649.154	-243.38
649.273	63.62
649.391	-183.38
649.51	-295.38
649.628	-343.38
649.746	176.62
649.865	-191.38
649.983	-281.38
650.101	-148.38
650.22	-136.38
650.338	-206.38
650.456	-223.38
650.575	-246.38
650.693	-291.38
650.811	-13.38
650.93	-350.38
651.048	1103.62
651.166	311.62
651.285	-135.38
651.403	-65.38
651.521	-142.38
651.639	-125.38
651.758	-126.38
651.876	194.62
651.994	-309.38
652.112	88.62
652.231	-93.38
652.349	-298.38
652.467	-487.38
652.585	-84.38
652.704	36.62
652.822	-402.38
652.94	-387.38
653.058	-39.38
653.176	-199.38
653.295	-148.38
653.413	-50.38
653.531	-214.38
653.649	-89.38
653.767	-301.38
653.886	-336.38
654.004	-213.38
654.122	159.62
654.24	-395.38
654.358	-350.38
654.476	-130.38
654.594	216.62
654.713	-219.38
654.831	-418.38
654.949	-163.38
655.067	-22.38
655.185	-358.38
655.303	-265.38
655.421	-148.38
655.539	125.62
655.658	-154.38
655.776	-241.38
655.894	5.62
656.012	156.62
656.13	-380.38
656.248	-232.38
656.366	-247.38
656.484	-153.38
656.602	-338.38
656.72	-294.38
656.838	-28.38
656.956	-160.38
657.074	-64.38
657.192	-111.38
657.31	-235.38
657.428	-165.38
657.546	-127.38
657.664	-143.38
657.782	-110.38
657.9	107.62
658.018	-250.38
658.136	-162.38
658.254	72.62
658.372	100.62
658.49	-319.38
658.608	-370.38
658.726	-21.38
658.844	26.62
658.962	-253.38
659.08	-353.38
659.198	-25.38
659.316	-104.38
