Data from HR4D30811__1__16-26-38-611.txt Node

Date: Fri Jan 26 16:26:38 MST 2024
User: Brock
Spectrometer: HR4D3081
Trigger mode: 4
Integration Time (sec): 8.000000E0
Scans to average: 1
Electric dark correction enabled: true
Nonlinearity correction enabled: false
Boxcar width: 0
XAxis mode: Wavelengths
Number of Pixels in Spectrum: 3648
>>>>>Begin Spectral Data<<<<<
197.25	-1197.62
197.385	-1197.62
197.519	-1197.62
197.653	-1214.62
197.787	217.38
197.922	-149.62
198.056	48.38
198.19	50.38
198.324	23.38
198.459	-200.62
198.593	406.38
198.727	-24.62
198.861	-106.62
198.996	212.38
199.13	-252.62
199.264	-201.62
199.398	-50.62
199.533	245.38
199.667	121.38
199.801	-46.62
199.935	-251.62
200.07	-23.62
200.204	-15.62
200.338	-152.62
200.472	-187.62
200.606	-327.62
200.741	-146.62
200.875	-122.62
201.009	-106.62
201.143	-186.62
201.277	59.38
201.412	82.38
201.546	218.38
201.68	204.38
201.814	-173.62
201.948	86.38
202.082	-73.62
202.217	-308.62
202.351	-140.62
202.485	-23.62
202.619	-264.62
202.753	-335.62
202.887	288.38
203.021	103.38
203.156	226.38
203.29	36.38
203.424	-17.62
203.558	-191.62
203.692	-73.62
203.826	-285.62
203.96	-72.62
204.094	209.38
204.229	-175.62
204.363	-204.62
204.497	-322.62
204.631	-273.62
204.765	-205.62
204.899	-111.62
205.033	-138.62
205.167	-234.62
205.301	-8.62
205.435	-298.62
205.569	-76.62
205.704	-57.62
205.838	-276.62
205.972	-131.62
206.106	529.38
206.24	-176.62
206.374	-210.62
206.508	0.38
206.642	59.38
206.776	-70.62
206.91	189.38
207.044	19.38
207.178	119.38
207.312	-26.62
207.446	-132.62
207.58	-117.62
207.714	-237.62
207.848	133.38
207.982	-370.62
208.116	69.38
208.25	-220.62
208.384	-190.62
208.518	-164.62
208.652	-250.62
208.786	-258.62
208.92	239.38
209.054	-61.62
209.188	-267.62
209.322	-85.62
209.456	-123.62
209.59	-259.62
209.724	-83.62
209.858	-23.62
209.992	-87.62
210.126	-176.62
210.26	-129.62
210.394	-63.62
210.528	-69.62
210.662	-177.62
210.796	-154.62
210.929	141.38
211.063	14.38
211.197	-60.62
211.331	-18.62
211.465	-194.62
211.599	69.38
211.733	105.38
211.867	-187.62
212.001	-180.62
212.135	-33.62
212.269	-214.62
212.402	-198.62
212.536	84.38
212.67	-118.62
212.804	-238.62
212.938	58.38
213.072	-211.62
213.206	-77.62
213.34	-141.62
213.473	-133.62
213.607	112.38
213.741	-278.62
213.875	-268.62
214.009	-210.62
214.143	-147.62
214.277	-115.62
214.41	-224.62
214.544	240.38
214.678	87.38
214.812	306.38
214.946	-259.62
215.08	-162.62
215.213	-222.62
215.347	-89.62
215.481	-67.62
215.615	-320.62
215.749	50.38
215.882	-242.62
216.016	-291.62
216.15	66.38
216.284	152.38
216.418	6.38
216.551	112.38
216.685	34.38
216.819	-252.62
216.953	-165.62
217.086	268.38
217.22	-136.62
217.354	18.38
217.488	95.38
217.621	97.38
217.755	-14.62
217.889	-113.62
218.023	-56.62
218.156	64.38
218.29	101.38
218.424	198.38
218.558	-240.62
218.691	-377.62
218.825	-110.62
218.959	444.38
219.092	-121.62
219.226	-314.62
219.36	-299.62
219.494	-31.62
219.627	-172.62
219.761	-194.62
219.895	-102.62
220.028	-280.62
220.162	478.38
220.296	143.38
220.429	-11.62
220.563	-40.62
220.697	-19.62
220.83	-205.62
220.964	-165.62
221.098	-242.62
221.231	-244.62
221.365	55.38
221.499	-211.62
221.632	-236.62
221.766	18.38
221.9	-74.62
222.033	88.38
222.167	84.38
222.3	-192.62
222.434	-8.62
222.568	255.38
222.701	-172.62
222.835	-143.62
222.968	-230.62
223.102	-236.62
223.236	-264.62
223.369	19.38
223.503	9.38
223.636	-219.62
223.77	-150.62
223.904	38.38
224.037	-193.62
224.171	100.38
224.304	7.38
224.438	-158.62
224.571	-84.62
224.705	198.38
224.839	-25.62
224.972	-317.62
225.106	-31.62
225.239	-94.62
225.373	53.38
225.506	-70.62
225.64	62.38
225.773	-135.62
225.907	-193.62
226.04	-310.62
226.174	-105.62
226.307	-62.62
226.441	-132.62
226.575	9.38
226.708	184.38
226.842	-78.62
226.975	-147.62
227.109	-196.62
227.242	17.38
227.375	79.38
227.509	-47.62
227.642	-137.62
227.776	63.38
227.909	42.38
228.043	-199.62
228.176	200.38
228.31	-253.62
228.443	332.38
228.577	-62.62
228.71	-103.62
228.844	-10.62
228.977	-279.62
229.111	-186.62
229.244	78.38
229.377	-288.62
229.511	-26.62
229.644	-170.62
229.778	-144.62
229.911	-193.62
230.044	-112.62
230.178	-30.62
230.311	-211.62
230.445	26.38
230.578	-188.62
230.711	-55.62
230.845	329.38
230.978	55.38
231.112	-229.62
231.245	-239.62
231.378	-207.62
231.512	44.38
231.645	-408.62
231.779	-312.62
231.912	-11.62
232.045	60.38
232.179	-150.62
232.312	-139.62
232.445	90.38
232.579	252.38
232.712	140.38
232.845	-179.62
232.979	-347.62
233.112	96.38
233.245	-128.62
233.379	-288.62
233.512	-13.62
233.645	-241.62
233.779	-250.62
233.912	33.38
234.045	-144.62
234.179	51.38
234.312	-153.62
234.445	24.38
234.578	-1.62
234.712	12.38
234.845	58.38
234.978	-162.62
235.112	-45.62
235.245	131.38
235.378	-162.62
235.511	-21.62
235.645	35.38
235.778	21.38
235.911	-138.62
236.044	-283.62
236.178	294.38
236.311	-255.62
236.444	-253.62
236.577	-212.62
236.711	-37.62
236.844	-387.62
236.977	-124.62
237.11	-178.62
237.243	0.38
237.377	-264.62
237.51	-191.62
237.643	956.38
237.776	-139.62
237.909	-139.62
238.043	-3.62
238.176	-203.62
238.309	-87.62
238.442	-281.62
238.575	-78.62
238.709	422.38
238.842	11.38
238.975	-15.62
239.108	185.38
239.241	-281.62
239.374	-237.62
239.508	-180.62
239.641	197.38
239.774	383.38
239.907	-62.62
240.04	-244.62
240.173	49.38
240.306	210.38
240.44	-156.62
240.573	184.38
240.706	-146.62
240.839	7.38
240.972	-82.62
241.105	-64.62
241.238	33.38
241.371	-49.62
241.504	-43.62
241.638	-111.62
241.771	-40.62
241.904	-158.62
242.037	60.38
242.17	-207.62
242.303	-300.62
242.436	-51.62
242.569	-107.62
242.702	-207.62
242.835	-132.62
242.968	-56.62
243.101	-101.62
243.234	-232.62
243.367	-265.62
243.5	-129.62
243.634	-193.62
243.767	-283.62
243.9	-222.62
244.033	-244.62
244.166	68.38
244.299	-305.62
244.432	-241.62
244.565	17.38
244.698	-332.62
244.831	-149.62
244.964	-256.62
245.097	-178.62
245.23	23.38
245.363	147.38
245.496	-277.62
245.629	-146.62
245.762	450.38
245.895	-247.62
246.028	-217.62
246.161	425.38
246.294	83.38
246.427	-225.62
246.559	90.38
246.692	-32.62
246.825	-127.62
246.958	-224.62
247.091	-261.62
247.224	-302.62
247.357	-188.62
247.49	114.38
247.623	-183.62
247.756	-264.62
247.889	285.38
248.022	-112.62
248.155	-274.62
248.288	-96.62
248.421	-216.62
248.553	85.38
248.686	-233.62
248.819	90.38
248.952	-211.62
249.085	182.38
249.218	-44.62
249.351	-95.62
249.484	192.38
249.617	-82.62
249.749	-244.62
249.882	-215.62
250.015	-214.62
250.148	-151.62
250.281	-257.62
250.414	-149.62
250.547	-192.62
250.679	218.38
250.812	-92.62
250.945	9.38
251.078	-239.62
251.211	-171.62
251.344	-291.62
251.476	-157.62
251.609	9.38
251.742	-267.62
251.875	-61.62
252.008	-182.62
252.14	-349.62
252.273	-103.62
252.406	189.38
252.539	-39.62
252.672	-81.62
252.804	140.38
252.937	-257.62
253.07	11.38
253.203	-99.62
253.335	84.38
253.468	-326.62
253.601	-139.62
253.734	-66.62
253.866	-149.62
253.999	415.38
254.132	-17.62
254.265	-134.62
254.397	-183.62
254.53	-153.62
254.663	43.38
254.796	-192.62
254.928	-280.62
255.061	-209.62
255.194	-36.62
255.327	-295.62
255.459	-13.62
255.592	-275.62
255.725	189.38
255.857	-179.62
255.99	7.38
256.123	-276.62
256.255	-243.62
256.388	-57.62
256.521	-231.62
256.653	-287.62
256.786	-232.62
256.919	-175.62
257.051	-243.62
257.184	-23.62
257.317	-202.62
257.449	-248.62
257.582	-74.62
257.715	-196.62
257.847	-228.62
257.98	-96.62
258.113	-167.62
258.245	-111.62
258.378	-345.62
258.51	-260.62
258.643	-239.62
258.776	37.38
258.908	-291.62
259.041	-53.62
259.174	-180.62
259.306	-200.62
259.439	-263.62
259.571	-168.62
259.704	-112.62
259.837	198.38
259.969	-199.62
260.102	-218.62
260.234	235.38
260.367	85.38
260.499	-231.62
260.632	-148.62
260.765	-175.62
260.897	-180.62
261.03	-213.62
261.162	-54.62
261.295	-52.62
261.427	109.38
261.56	-54.62
261.692	-241.62
261.825	-56.62
261.957	88.38
262.09	117.38
262.222	19.38
262.355	-241.62
262.487	-119.62
262.62	-252.62
262.752	-99.62
262.885	-161.62
263.017	10.38
263.15	-200.62
263.282	-65.62
263.415	-260.62
263.547	-27.62
263.68	200.38
263.812	-295.62
263.945	-108.62
264.077	-234.62
264.21	174.38
264.342	-275.62
264.475	-206.62
264.607	169.38
264.74	-380.62
264.872	-102.62
265.004	119.38
265.137	58.38
265.269	353.38
265.402	-280.62
265.534	-190.62
265.667	-167.62
265.799	68.38
265.931	-87.62
266.064	-1.62
266.196	-139.62
266.329	-157.62
266.461	-160.62
266.593	51.38
266.726	-324.62
266.858	-151.62
266.99	-88.62
267.123	-162.62
267.255	-45.62
267.388	-124.62
267.52	-230.62
267.652	-164.62
267.785	113.38
267.917	-3.62
268.049	-134.62
268.182	388.38
268.314	67.38
268.446	-325.62
268.579	-198.62
268.711	185.38
268.843	-221.62
268.976	-59.62
269.108	392.38
269.24	155.38
269.373	-18.62
269.505	-155.62
269.637	-143.62
269.77	-223.62
269.902	143.38
270.034	-250.62
270.167	28.38
270.299	-19.62
270.431	38.38
270.563	-162.62
270.696	11.38
270.828	-106.62
270.96	-80.62
271.092	21.38
271.225	-191.62
271.357	-58.62
271.489	-198.62
271.621	-235.62
271.754	531.38
271.886	-218.62
272.018	-171.62
272.15	298.38
272.283	-262.62
272.415	-161.62
272.547	63.38
272.679	89.38
272.811	-96.62
272.944	-122.62
273.076	-329.62
273.208	-65.62
273.34	-94.62
273.473	-144.62
273.605	95.38
273.737	-268.62
273.869	-39.62
274.001	-395.62
274.133	-7.62
274.266	-193.62
274.398	1478.38
274.53	63.38
274.662	135.38
274.794	27.38
274.926	90.38
275.059	-174.62
275.191	0.38
275.323	-252.62
275.455	105.38
275.587	-228.62
275.719	-172.62
275.851	-98.62
275.983	44.38
276.116	-4.62
276.248	118.38
276.38	-263.62
276.512	-13.62
276.644	-147.62
276.776	-235.62
276.908	-30.62
277.04	-90.62
277.172	50.38
277.304	-169.62
277.437	-20.62
277.569	-205.62
277.701	-216.62
277.833	-114.62
277.965	-179.62
278.097	36.38
278.229	-181.62
278.361	-148.62
278.493	96.38
278.625	189.38
278.757	45.38
278.889	-243.62
279.021	-138.62
279.153	498.38
279.285	-211.62
279.417	584.38
279.549	95.38
279.681	-94.62
279.813	-184.62
279.945	29.38
280.077	-212.62
280.209	1050.38
280.341	-274.62
280.473	-158.62
280.605	102.38
280.737	-25.62
280.869	199.38
281.001	-69.62
281.133	-305.62
281.265	-12.62
281.397	-120.62
281.529	260.38
281.661	-260.62
281.793	-361.62
281.925	-220.62
282.057	-135.62
282.189	-149.62
282.321	-47.62
282.453	23.38
282.585	-214.62
282.717	152.38
282.849	-58.62
282.98	-132.62
283.112	-229.62
283.244	7.38
283.376	-251.62
283.508	-339.62
283.64	-215.62
283.772	114.38
283.904	104.38
284.036	-274.62
284.168	135.38
284.299	-33.62
284.431	-44.62
284.563	-138.62
284.695	-128.62
284.827	-241.62
284.959	4.38
285.091	-224.62
285.222	-253.62
285.354	-176.62
285.486	-101.62
285.618	-246.62
285.75	-116.62
285.882	180.38
286.013	45.38
286.145	-55.62
286.277	8.38
286.409	89.38
286.541	54.38
286.673	-221.62
286.804	-214.62
286.936	-60.62
287.068	-183.62
287.2	-221.62
287.332	303.38
287.463	-284.62
287.595	-46.62
287.727	393.38
287.859	-113.62
287.99	-119.62
288.122	-179.62
288.254	48.38
288.386	-152.62
288.517	-286.62
288.649	-138.62
288.781	-26.62
288.913	-23.62
289.044	-272.62
289.176	199.38
289.308	-169.62
289.44	-346.62
289.571	-173.62
289.703	-251.62
289.835	68.38
289.967	-250.62
290.098	-285.62
290.23	-309.62
290.362	113.38
290.493	-327.62
290.625	-157.62
290.757	-171.62
290.888	-142.62
291.02	-8.62
291.152	-27.62
291.283	-1.62
291.415	-121.62
291.547	-242.62
291.678	-240.62
291.81	-30.62
291.942	288.38
292.073	-49.62
292.205	-287.62
292.337	99.38
292.468	474.38
292.6	-194.62
292.732	639.38
292.863	-193.62
292.995	-323.62
293.126	40.38
293.258	185.38
293.39	-266.62
293.521	-245.62
293.653	-294.62
293.785	73.38
293.916	-147.62
294.048	29.38
294.179	22.38
294.311	-264.62
294.442	50.38
294.574	-260.62
294.706	-117.62
294.837	100.38
294.969	-59.62
295.1	-178.62
295.232	-231.62
295.363	194.38
295.495	-183.62
295.627	5.38
295.758	125.38
295.89	-360.62
296.021	12.38
296.153	29.38
296.284	-65.62
296.416	-115.62
296.547	-164.62
296.679	-54.62
296.81	-31.62
296.942	-316.62
297.073	-284.62
297.205	-291.62
297.336	-163.62
297.468	-247.62
297.599	-43.62
297.731	-357.62
297.862	-135.62
297.994	-330.62
298.125	-271.62
298.257	-112.62
298.388	33.38
298.52	31.38
298.651	-85.62
298.782	295.38
298.914	-238.62
299.045	-149.62
299.177	-290.62
299.308	-302.62
299.44	9.38
299.571	-24.62
299.702	-150.62
299.834	-74.62
299.965	-145.62
300.097	-221.62
300.228	-38.62
300.36	-82.62
300.491	-75.62
300.622	-20.62
300.754	-99.62
300.885	-217.62
301.017	-46.62
301.148	-192.62
301.279	-319.62
301.411	34.38
301.542	-11.62
301.673	-28.62
301.805	3.38
301.936	-218.62
302.067	-111.62
302.199	-185.62
302.33	-220.62
302.461	314.38
302.593	30.38
302.724	-16.62
302.855	-284.62
302.987	-114.62
303.118	-278.62
303.249	-331.62
303.381	-127.62
303.512	-194.62
303.643	-213.62
303.775	140.38
303.906	-246.62
304.037	-255.62
304.169	-210.62
304.3	-122.62
304.431	-285.62
304.562	-195.62
304.694	-153.62
304.825	-44.62
304.956	121.38
305.087	-150.62
305.219	-3.62
305.35	-45.62
305.481	-208.62
305.612	30.38
305.744	-3.62
305.875	-197.62
306.006	509.38
306.137	-226.62
306.269	-40.62
306.4	78.38
306.531	113.38
306.662	-115.62
306.794	108.38
306.925	-176.62
307.056	-268.62
307.187	-45.62
307.318	-121.62
307.45	-130.62
307.581	-231.62
307.712	-222.62
307.843	-72.62
307.974	-77.62
308.105	137.38
308.237	-58.62
308.368	-284.62
308.499	-116.62
308.63	-5.62
308.761	-89.62
308.892	-114.62
309.024	-145.62
309.155	-175.62
309.286	-202.62
309.417	-262.62
309.548	-133.62
309.679	-152.62
309.81	-383.62
309.941	444.38
310.073	-33.62
310.204	-319.62
310.335	-21.62
310.466	-174.62
310.597	-279.62
310.728	-165.62
310.859	358.38
310.99	343.38
311.121	-104.62
311.252	-88.62
311.383	-236.62
311.514	-36.62
311.646	-149.62
311.777	-7.62
311.908	-30.62
312.039	-134.62
312.17	-309.62
312.301	-121.62
312.432	-211.62
312.563	-326.62
312.694	-42.62
312.825	-124.62
312.956	-201.62
313.087	59.38
313.218	88.38
313.349	-120.62
313.48	-328.62
313.611	-114.62
313.742	-88.62
313.873	84.38
314.004	-34.62
314.135	-162.62
314.266	-41.62
314.397	-156.62
314.528	-238.62
314.659	-267.62
314.79	-211.62
314.921	28.38
315.052	36.38
315.183	-268.62
315.314	-287.62
315.445	50.38
315.576	-43.62
315.707	-119.62
315.838	-173.62
315.968	-27.62
316.099	-277.62
316.23	-335.62
316.361	88.38
316.492	-122.62
316.623	74.38
316.754	189.38
316.885	-369.62
317.016	-286.62
317.147	-337.62
317.278	68.38
317.408	-250.62
317.539	-274.62
317.67	-269.62
317.801	-15.62
317.932	-154.62
318.063	-197.62
318.194	-142.62
318.325	0.38
318.455	-331.62
318.586	-149.62
318.717	-21.62
318.848	-337.62
318.979	85.38
319.11	285.38
319.24	36.38
319.371	11.38
319.502	-88.62
319.633	-201.62
319.764	-126.62
319.895	-248.62
320.025	-80.62
320.156	-306.62
320.287	-393.62
320.418	-198.62
320.549	-67.62
320.679	-316.62
320.81	118.38
320.941	-333.62
321.072	-324.62
321.202	-37.62
321.333	228.38
321.464	-385.62
321.595	-227.62
321.726	253.38
321.856	-345.62
321.987	-157.62
322.118	-240.62
322.249	-31.62
322.379	-50.62
322.51	4.38
322.641	-34.62
322.771	-291.62
322.902	-81.62
323.033	-85.62
323.164	706.38
323.294	-171.62
323.425	-209.62
323.556	-191.62
323.686	-82.62
323.817	291.38
323.948	-26.62
324.078	-126.62
324.209	168.38
324.34	-171.62
324.47	205.38
324.601	-206.62
324.732	-13.62
324.862	23.38
324.993	-209.62
325.124	-417.62
325.254	-57.62
325.385	-94.62
325.516	503.38
325.646	381.38
325.777	-164.62
325.908	-155.62
326.038	40.38
326.169	-139.62
326.299	-64.62
326.43	109.38
326.561	-112.62
326.691	-142.62
326.822	-245.62
326.952	-188.62
327.083	-44.62
327.214	-232.62
327.344	-74.62
327.475	-5.62
327.605	-36.62
327.736	-149.62
327.867	-296.62
327.997	-135.62
328.128	-70.62
328.258	-325.62
328.389	274.38
328.519	-275.62
328.65	18.38
328.78	-211.62
328.911	-11.62
329.041	100.38
329.172	-348.62
329.303	-201.62
329.433	-145.62
329.564	-265.62
329.694	-233.62
329.825	-231.62
329.955	7.38
330.086	451.38
330.216	-126.62
330.347	-264.62
330.477	-115.62
330.608	-106.62
330.738	-115.62
330.868	-301.62
330.999	-170.62
331.129	147.38
331.26	-217.62
331.39	-208.62
331.521	272.38
331.651	48.38
331.782	-330.62
331.912	-283.62
332.043	-244.62
332.173	50.38
332.303	-325.62
332.434	117.38
332.564	-12.62
332.695	-184.62
332.825	-352.62
332.956	-203.62
333.086	-132.62
333.216	-253.62
333.347	-55.62
333.477	-389.62
333.608	-84.62
333.738	-3.62
333.868	-89.62
333.999	-59.62
334.129	107.38
334.259	-66.62
334.39	-200.62
334.52	18.38
334.65	-166.62
334.781	130.38
334.911	-203.62
335.042	-236.62
335.172	-47.62
335.302	-137.62
335.433	272.38
335.563	-244.62
335.693	-4.62
335.824	269.38
335.954	-377.62
336.084	-30.62
336.214	-32.62
336.345	295.38
336.475	62.38
336.605	-228.62
336.736	322.38
336.866	-101.62
336.996	-145.62
337.126	-254.62
337.257	-80.62
337.387	-328.62
337.517	-209.62
337.648	-341.62
337.778	162.38
337.908	81.38
338.038	43.38
338.169	-164.62
338.299	240.38
338.429	-46.62
338.559	-234.62
338.69	-188.62
338.82	389.38
338.95	-21.62
339.08	-431.62
339.21	-300.62
339.341	-95.62
339.471	31.38
339.601	-108.62
339.731	-53.62
339.861	-150.62
339.992	-140.62
340.122	-116.62
340.252	-204.62
340.382	-174.62
340.512	-80.62
340.642	156.38
340.773	-69.62
340.903	-305.62
341.033	-100.62
341.163	-23.62
341.293	96.38
341.423	-206.62
341.554	-279.62
341.684	-33.62
341.814	-112.62
341.944	-166.62
342.074	-85.62
342.204	-192.62
342.334	185.38
342.464	-276.62
342.595	-154.62
342.725	-310.62
342.855	-71.62
342.985	-156.62
343.115	-274.62
343.245	-377.62
343.375	9.38
343.505	-98.62
343.635	-0.62
343.765	-178.62
343.895	-345.62
344.025	45.38
344.155	-278.62
344.286	-179.62
344.416	-53.62
344.546	117.38
344.676	-93.62
344.806	177.38
344.936	-77.62
345.066	180.38
345.196	-243.62
345.326	-309.62
345.456	111.38
345.586	-240.62
345.716	-296.62
345.846	44.38
345.976	-343.62
346.106	-86.62
346.236	62.38
346.366	1.38
346.496	-194.62
346.626	-148.62
346.756	-191.62
346.886	-229.62
347.016	-330.62
347.146	-196.62
347.276	-266.62
347.406	-190.62
347.536	-62.62
347.666	114.38
347.795	-251.62
347.925	-170.62
348.055	106.38
348.185	-153.62
348.315	-187.62
348.445	99.38
348.575	-166.62
348.705	-254.62
348.835	-249.62
348.965	-182.62
349.095	39.38
349.225	255.38
349.354	-229.62
349.484	-188.62
349.614	-150.62
349.744	-239.62
349.874	-224.62
350.004	-317.62
350.134	-233.62
350.264	-337.62
350.393	-273.62
350.523	158.38
350.653	-320.62
350.783	7.38
350.913	170.38
351.043	-235.62
351.173	-208.62
351.302	-24.62
351.432	183.38
351.562	-98.62
351.692	-60.62
351.822	-150.62
351.951	-349.62
352.081	202.38
352.211	-104.62
352.341	178.38
352.471	139.38
352.6	-156.62
352.73	-201.62
352.86	-150.62
352.99	-5.62
353.12	-70.62
353.249	-24.62
353.379	-229.62
353.509	74.38
353.639	-293.62
353.768	-78.62
353.898	-225.62
354.028	-305.62
354.158	-195.62
354.287	-196.62
354.417	-273.62
354.547	-241.62
354.677	-354.62
354.806	-132.62
354.936	-16.62
355.066	-212.62
355.195	-11.62
355.325	-29.62
355.455	-228.62
355.584	179.38
355.714	-240.62
355.844	149.38
355.974	-31.62
356.103	-108.62
356.233	-157.62
356.363	26.38
356.492	-239.62
356.622	-289.62
356.752	-18.62
356.881	-330.62
357.011	60.38
357.14	121.38
357.27	-162.62
357.4	60.38
357.529	-127.62
357.659	139.38
357.789	34.38
357.918	-298.62
358.048	-347.62
358.177	-137.62
358.307	-262.62
358.437	-100.62
358.566	-244.62
358.696	62.38
358.825	112.38
358.955	-308.62
359.085	0.38
359.214	-389.62
359.344	-84.62
359.473	-274.62
359.603	-151.62
359.733	-207.62
359.862	-330.62
359.992	86.38
360.121	-172.62
360.251	34.38
360.38	-301.62
360.51	111.38
360.639	-175.62
360.769	-44.62
360.898	98.38
361.028	68.38
361.157	-80.62
361.287	-41.62
361.416	-249.62
361.546	-120.62
361.675	-141.62
361.805	-191.62
361.934	48.38
362.064	-153.62
362.193	-196.62
362.323	-262.62
362.452	92.38
362.582	-244.62
362.711	-131.62
362.841	35.38
362.97	-14.62
363.1	-266.62
363.229	-300.62
363.359	-115.62
363.488	-229.62
363.617	-79.62
363.747	-79.62
363.876	-379.62
364.006	-35.62
364.135	-131.62
364.265	-114.62
364.394	-182.62
364.523	282.38
364.653	-262.62
364.782	-15.62
364.912	-274.62
365.041	-291.62
365.17	-255.62
365.3	14.38
365.429	159.38
365.558	-177.62
365.688	-228.62
365.817	-244.62
365.947	-35.62
366.076	-50.62
366.205	-98.62
366.335	-372.62
366.464	-233.62
366.593	112.38
366.723	-150.62
366.852	-80.62
366.981	-93.62
367.111	-272.62
367.24	-144.62
367.369	-127.62
367.499	513.38
367.628	121.38
367.757	-173.62
367.886	-43.62
368.016	105.38
368.145	-128.62
368.274	-88.62
368.404	-289.62
368.533	-72.62
368.662	8.38
368.791	-198.62
368.921	-347.62
369.05	140.38
369.179	-53.62
369.308	316.38
369.438	-319.62
369.567	-337.62
369.696	-104.62
369.825	-13.62
369.955	-159.62
370.084	-7.62
370.213	-110.62
370.342	-317.62
370.472	-280.62
370.601	406.38
370.73	38.38
370.859	-418.62
370.988	-147.62
371.118	-271.62
371.247	14.38
371.376	114.38
371.505	-58.62
371.634	-35.62
371.763	-109.62
371.893	-255.62
372.022	-152.62
372.151	-270.62
372.28	-324.62
372.409	-381.62
372.538	-166.62
372.667	-37.62
372.797	92.38
372.926	-327.62
373.055	-52.62
373.184	-137.62
373.313	-246.62
373.442	-51.62
373.571	-232.62
373.7	-138.62
373.83	-59.62
373.959	-427.62
374.088	-159.62
374.217	102.38
374.346	-168.62
374.475	-363.62
374.604	-216.62
374.733	288.38
374.862	-130.62
374.991	-272.62
375.12	-76.62
375.249	-68.62
375.378	-241.62
375.508	-329.62
375.637	-325.62
375.766	56.38
375.895	-205.62
376.024	128.38
376.153	-278.62
376.282	-125.62
376.411	-240.62
376.54	-427.62
376.669	-80.62
376.798	-178.62
376.927	-265.62
377.056	97.38
377.185	-75.62
377.314	97.38
377.443	236.38
377.572	-287.62
377.701	-229.62
377.83	134.38
377.959	-9.62
378.088	1672.38
378.217	150.38
378.346	-155.62
378.474	-369.62
378.603	-281.62
378.732	-41.62
378.861	-167.62
378.99	-290.62
379.119	-382.62
379.248	-105.62
379.377	-173.62
379.506	-169.62
379.635	129.38
379.764	-86.62
379.893	-269.62
380.022	-294.62
380.15	-92.62
380.279	-340.62
380.408	-266.62
380.537	-162.62
380.666	-34.62
380.795	-28.62
380.924	-164.62
381.053	-282.62
381.181	-68.62
381.31	786.38
381.439	-272.62
381.568	-162.62
381.697	-188.62
381.826	-140.62
381.955	-267.62
382.083	-91.62
382.212	-305.62
382.341	46.38
382.47	-248.62
382.599	-172.62
382.727	244.38
382.856	-12.62
382.985	-13.62
383.114	-160.62
383.243	-213.62
383.371	-108.62
383.5	-216.62
383.629	-253.62
383.758	-246.62
383.887	-409.62
384.015	-78.62
384.144	-273.62
384.273	-97.62
384.402	-14.62
384.53	-232.62
384.659	-256.62
384.788	-264.62
384.917	-220.62
385.045	-90.62
385.174	-131.62
385.303	-404.62
385.432	29.38
385.56	-89.62
385.689	-130.62
385.818	-58.62
385.946	-30.62
386.075	-242.62
386.204	-291.62
386.332	-113.62
386.461	48.38
386.59	-9.62
386.718	-305.62
386.847	-166.62
386.976	-171.62
387.104	-372.62
387.233	-293.62
387.362	-55.62
387.49	-93.62
387.619	-269.62
387.748	-113.62
387.876	111.38
388.005	-102.62
388.134	69.38
388.262	-320.62
388.391	-237.62
388.52	-26.62
388.648	-311.62
388.777	68.38
388.905	-233.62
389.034	-153.62
389.163	-238.62
389.291	-141.62
389.42	42.38
389.548	65.38
389.677	-125.62
389.805	-80.62
389.934	8.38
390.063	-308.62
390.191	-362.62
390.32	-248.62
390.448	-180.62
390.577	-291.62
390.705	-314.62
390.834	-124.62
390.962	-313.62
391.091	-265.62
391.22	111.38
391.348	175.38
391.477	-7.62
391.605	-323.62
391.734	-186.62
391.862	-212.62
391.991	-305.62
392.119	-273.62
392.248	-120.62
392.376	-123.62
392.505	-138.62
392.633	-218.62
392.762	303.38
392.89	-307.62
393.018	46.38
393.147	-163.62
393.275	-377.62
393.404	-277.62
393.532	-194.62
393.661	-79.62
393.789	-105.62
393.918	-95.62
394.046	-126.62
394.174	-116.62
394.303	-346.62
394.431	-234.62
394.56	13.38
394.688	-339.62
394.817	-389.62
394.945	116.38
395.073	59.38
395.202	-71.62
395.33	-177.62
395.459	-115.62
395.587	97.38
395.715	78.38
395.844	-66.62
395.972	-427.62
396.1	99.38
396.229	-280.62
396.357	-54.62
396.485	-209.62
396.614	-249.62
396.742	85.38
396.87	-100.62
396.999	-12.62
397.127	-315.62
397.255	-42.62
397.384	52.38
397.512	-371.62
397.64	-270.62
397.769	-142.62
397.897	-36.62
398.025	-157.62
398.154	-69.62
398.282	217.38
398.41	-82.62
398.538	-84.62
398.667	-206.62
398.795	-217.62
398.923	19.38
399.052	-217.62
399.18	-148.62
399.308	-137.62
399.436	212.38
399.565	-279.62
399.693	-50.62
399.821	-133.62
399.949	-199.62
400.078	288.38
400.206	-292.62
400.334	-307.62
400.462	-130.62
400.59	-356.62
400.719	-207.62
400.847	-274.62
400.975	-33.62
401.103	-245.62
401.231	-63.62
401.36	-115.62
401.488	-10.62
401.616	-190.62
401.744	-175.62
401.872	-237.62
402	24.38
402.129	-187.62
402.257	-261.62
402.385	-157.62
402.513	-138.62
402.641	-172.62
402.769	-153.62
402.897	-248.62
403.026	-315.62
403.154	-362.62
403.282	-311.62
403.41	-176.62
403.538	179.38
403.666	-334.62
403.794	-152.62
403.922	-102.62
404.05	-84.62
404.179	-125.62
404.307	-63.62
404.435	-260.62
404.563	-265.62
404.691	-362.62
404.819	450.38
404.947	-266.62
405.075	-252.62
405.203	-347.62
405.331	-222.62
405.459	-300.62
405.587	-97.62
405.715	-254.62
405.843	-219.62
405.971	-92.62
406.099	126.38
406.227	-27.62
406.355	-149.62
406.483	-357.62
406.611	-30.62
406.739	-300.62
406.867	-294.62
406.995	-235.62
407.123	-159.62
407.251	-384.62
407.379	-321.62
407.507	-11.62
407.635	-141.62
407.763	-422.62
407.891	-442.62
408.019	-3.62
408.147	10.38
408.275	191.38
408.403	-345.62
408.531	-354.62
408.659	199.38
408.787	-109.62
408.915	-207.62
409.043	-246.62
409.171	66.38
409.299	16.38
409.427	47.38
409.554	-354.62
409.682	284.38
409.81	-85.62
409.938	-212.62
410.066	70.38
410.194	-65.62
410.322	-282.62
410.45	-212.62
410.578	-372.62
410.705	-301.62
410.833	-89.62
410.961	57.38
411.089	323.38
411.217	-172.62
411.345	-167.62
411.473	-247.62
411.6	-71.62
411.728	-203.62
411.856	-346.62
411.984	-312.62
412.112	-73.62
412.239	-56.62
412.367	-209.62
412.495	92.38
412.623	-268.62
412.751	39.38
412.878	-381.62
413.006	-183.62
413.134	98.38
413.262	161.38
413.39	-61.62
413.517	-63.62
413.645	35.38
413.773	-349.62
413.901	168.38
414.028	-189.62
414.156	-137.62
414.284	-258.62
414.412	52.38
414.539	-225.62
414.667	-248.62
414.795	-254.62
414.923	-385.62
415.05	-170.62
415.178	-35.62
415.306	330.38
415.433	-241.62
415.561	56.38
415.689	75.38
415.816	-236.62
415.944	149.38
416.072	-316.62
416.2	14.38
416.327	224.38
416.455	-262.62
416.583	-211.62
416.71	-232.62
416.838	139.38
416.966	-346.62
417.093	-183.62
417.221	48.38
417.348	-41.62
417.476	-325.62
417.604	-193.62
417.731	-146.62
417.859	37.38
417.987	-78.62
418.114	-258.62
418.242	43.38
418.369	-205.62
418.497	-323.62
418.625	164.38
418.752	-91.62
418.88	-293.62
419.007	169.38
419.135	-37.62
419.263	-182.62
419.39	71.38
419.518	95.38
419.645	69.38
419.773	667.38
419.9	1714.38
420.028	4214.38
420.155	5021.38
420.283	7141.38
420.41	8039.38
420.538	8827.38
420.666	9528.38
420.793	9631.38
420.921	8736.38
421.048	7027.38
421.176	4783.38
421.303	2432.38
421.431	670.38
421.558	-85.62
421.686	230.38
421.813	70.38
421.941	-176.62
422.068	-34.62
422.195	102.38
422.323	76.38
422.45	-357.62
422.578	-102.62
422.705	-192.62
422.833	-161.62
422.96	-253.62
423.088	-21.62
423.215	378.38
423.343	315.38
423.47	-79.62
423.597	225.38
423.725	-106.62
423.852	-126.62
423.98	-67.62
424.107	-355.62
424.234	-157.62
424.362	-203.62
424.489	-236.62
424.617	526.38
424.744	-68.62
424.871	-297.62
424.999	-161.62
425.126	125.38
425.253	-66.62
425.381	-177.62
425.508	-304.62
425.636	31.38
425.763	-215.62
425.89	-212.62
426.018	-317.62
426.145	-145.62
426.272	-67.62
426.4	54.38
426.527	97.38
426.654	-280.62
426.781	-68.62
426.909	-93.62
427.036	-100.62
427.163	-334.62
427.291	-295.62
427.418	-166.62
427.545	-121.62
427.673	-358.62
427.8	-374.62
427.927	-299.62
428.054	-55.62
428.182	-162.62
428.309	-198.62
428.436	-230.62
428.563	-292.62
428.691	-59.62
428.818	-239.62
428.945	-18.62
429.072	-332.62
429.2	0.38
429.327	-51.62
429.454	30.38
429.581	-135.62
429.708	-392.62
429.836	-246.62
429.963	-227.62
430.09	-223.62
430.217	-230.62
430.344	-301.62
430.472	-277.62
430.599	-7.62
430.726	-198.62
430.853	-124.62
430.98	-13.62
431.107	-280.62
431.235	-107.62
431.362	-28.62
431.489	-128.62
431.616	242.38
431.743	107.38
431.87	-336.62
431.997	-184.62
432.125	-128.62
432.252	-462.62
432.379	-182.62
432.506	-54.62
432.633	-231.62
432.76	-110.62
432.887	102.38
433.014	-225.62
433.141	-288.62
433.268	35.38
433.395	-226.62
433.523	-174.62
433.65	-190.62
433.777	-192.62
433.904	-170.62
434.031	-376.62
434.158	-72.62
434.285	13.38
434.412	-377.62
434.539	-148.62
434.666	-288.62
434.793	-268.62
434.92	-303.62
435.047	-2.62
435.174	-147.62
435.301	22.38
435.428	284.38
435.555	174.38
435.682	-89.62
435.809	-309.62
435.936	106.38
436.063	-235.62
436.19	136.38
436.317	-236.62
436.444	21.38
436.571	-248.62
436.698	-29.62
436.825	141.38
436.952	27.38
437.079	-68.62
437.206	-32.62
437.333	-285.62
437.46	-188.62
437.587	-128.62
437.714	-319.62
437.84	-189.62
437.967	-339.62
438.094	-360.62
438.221	82.38
438.348	-137.62
438.475	7999.38
438.602	-306.62
438.729	-429.62
438.856	-261.62
438.983	-321.62
439.109	-41.62
439.236	77.38
439.363	-415.62
439.49	-234.62
439.617	-141.62
439.744	-267.62
439.871	456.38
439.997	-246.62
440.124	-75.62
440.251	-59.62
440.378	-250.62
440.505	-205.62
440.632	63.38
440.758	119.38
440.885	264.38
441.012	-246.62
441.139	46.38
441.266	-313.62
441.392	-217.62
441.519	-280.62
441.646	-348.62
441.773	-60.62
441.9	251.38
442.026	-205.62
442.153	-120.62
442.28	-29.62
442.407	-272.62
442.533	26.38
442.66	-37.62
442.787	-89.62
442.914	-285.62
443.04	-211.62
443.167	-160.62
443.294	-95.62
443.421	-111.62
443.547	-320.62
443.674	-166.62
443.801	-63.62
443.927	78.38
444.054	408.38
444.181	97.38
444.307	95.38
444.434	-77.62
444.561	-288.62
444.688	-364.62
444.814	37.38
444.941	-195.62
445.068	-313.62
445.194	224.38
445.321	-250.62
445.447	194.38
445.574	-366.62
445.701	-363.62
445.827	-163.62
445.954	-409.62
446.081	-23.62
446.207	-285.62
446.334	-153.62
446.461	-164.62
446.587	-431.62
446.714	19.38
446.84	62.38
446.967	-275.62
447.094	-193.62
447.22	63.38
447.347	-165.62
447.473	-282.62
447.6	-88.62
447.726	-357.62
447.853	-133.62
447.98	-138.62
448.106	-78.62
448.233	-118.62
448.359	-232.62
448.486	-53.62
448.612	-236.62
448.739	-48.62
448.865	79.38
448.992	243.38
449.118	-214.62
449.245	-330.62
449.371	-284.62
449.498	-124.62
449.624	5.38
449.751	-96.62
449.877	-261.62
450.004	-98.62
450.13	-139.62
450.257	-293.62
450.383	-166.62
450.51	-369.62
450.636	-242.62
450.763	-212.62
450.889	-225.62
451.016	-448.62
451.142	-43.62
451.269	-272.62
451.395	239.38
451.521	-171.62
451.648	-256.62
451.774	-74.62
451.901	-392.62
452.027	-173.62
452.154	54.38
452.28	-147.62
452.406	-234.62
452.533	-262.62
452.659	-322.62
452.785	-205.62
452.912	-316.62
453.038	-319.62
453.165	-73.62
453.291	110.38
453.417	159.38
453.544	-312.62
453.67	-199.62
453.796	68.38
453.923	-297.62
454.049	-227.62
454.175	-245.62
454.302	-216.62
454.428	-11.62
454.554	-85.62
454.681	-274.62
454.807	-305.62
454.933	304.38
455.06	-55.62
455.186	-159.62
455.312	97.38
455.439	60.38
455.565	-322.62
455.691	-298.62
455.817	-20.62
455.944	68.38
456.07	-150.62
456.196	10.38
456.322	-404.62
456.449	-382.62
456.575	-158.62
456.701	-258.62
456.827	-275.62
456.954	-352.62
457.08	-255.62
457.206	-419.62
457.332	-137.62
457.459	-346.62
457.585	-277.62
457.711	-252.62
457.837	-41.62
457.963	-90.62
458.09	-286.62
458.216	-301.62
458.342	-181.62
458.468	-192.62
458.594	-133.62
458.721	-131.62
458.847	-99.62
458.973	-330.62
459.099	-181.62
459.225	-227.62
459.351	-234.62
459.477	-78.62
459.604	-293.62
459.73	-241.62
459.856	-321.62
459.982	-122.62
460.108	-403.62
460.234	-415.62
460.36	-203.62
460.486	-6.62
460.613	-292.62
460.739	55.38
460.865	-227.62
460.991	212.38
461.117	159.38
461.243	-284.62
461.369	-344.62
461.495	-238.62
461.621	-160.62
461.747	-78.62
461.873	-66.62
461.999	-296.62
462.125	-155.62
462.252	33.38
462.378	-109.62
462.504	-38.62
462.63	-70.62
462.756	-324.62
462.882	-203.62
463.008	-214.62
463.134	56.38
463.26	-369.62
463.386	-225.62
463.512	-104.62
463.638	-263.62
463.764	-342.62
463.89	-160.62
464.016	84.38
464.142	-66.62
464.268	-314.62
464.394	-206.62
464.52	-343.62
464.645	-100.62
464.771	25.38
464.897	-247.62
465.023	-252.62
465.149	-137.62
465.275	-359.62
465.401	-257.62
465.527	92.38
465.653	-142.62
465.779	65.38
465.905	-342.62
466.031	-124.62
466.157	-272.62
466.282	-226.62
466.408	-255.62
466.534	-140.62
466.66	-432.62
466.786	-205.62
466.912	-92.62
467.038	-148.62
467.164	-198.62
467.289	-246.62
467.415	-174.62
467.541	-172.62
467.667	-179.62
467.793	-189.62
467.919	-91.62
468.045	172.38
468.17	-265.62
468.296	-173.62
468.422	-193.62
468.548	39.38
468.674	-396.62
468.799	-271.62
468.925	-233.62
469.051	-296.62
469.177	-381.62
469.303	-394.62
469.428	-3.62
469.554	-253.62
469.68	-277.62
469.806	-61.62
469.931	-135.62
470.057	365.38
470.183	-474.62
470.309	-247.62
470.434	157.38
470.56	-177.62
470.686	-120.62
470.812	-167.62
470.937	-309.62
471.063	-299.62
471.189	-64.62
471.315	70.38
471.44	-41.62
471.566	-178.62
471.692	45.38
471.817	-291.62
471.943	-133.62
472.069	-21.62
472.194	-185.62
472.32	-265.62
472.446	-25.62
472.571	-292.62
472.697	-247.62
472.823	-143.62
472.948	-319.62
473.074	-140.62
473.2	-201.62
473.325	-318.62
473.451	-193.62
473.577	-171.62
473.702	-422.62
473.828	-200.62
473.953	-370.62
474.079	-145.62
474.205	-339.62
474.33	-373.62
474.456	-220.62
474.581	191.38
474.707	-269.62
474.833	-224.62
474.958	-61.62
475.084	44.38
475.209	-247.62
475.335	-283.62
475.46	-85.62
475.586	-194.62
475.712	-61.62
475.837	-211.62
475.963	-195.62
476.088	-381.62
476.214	-272.62
476.339	-244.62
476.465	-270.62
476.59	-353.62
476.716	81.38
476.841	-308.62
476.967	204.38
477.092	-202.62
477.218	-107.62
477.343	-312.62
477.469	221.38
477.594	-226.62
477.72	-308.62
477.845	-99.62
477.971	-217.62
478.096	-139.62
478.222	-213.62
478.347	3247.38
478.472	-2.62
478.598	-253.62
478.723	-279.62
478.849	7.38
478.974	-72.62
479.1	-297.62
479.225	-117.62
479.35	-248.62
479.476	-43.62
479.601	-291.62
479.727	33.38
479.852	-282.62
479.977	-145.62
480.103	-150.62
480.228	172.38
480.354	-176.62
480.479	65.38
480.604	-235.62
480.73	-256.62
480.855	-427.62
480.98	47.38
481.106	-357.62
481.231	-394.62
481.356	-283.62
481.482	-418.62
481.607	-329.62
481.732	-494.62
481.858	-215.62
481.983	-306.62
482.108	-259.62
482.234	-369.62
482.359	-240.62
482.484	113.38
482.61	-306.62
482.735	-159.62
482.86	-381.62
482.985	-219.62
483.111	-204.62
483.236	-100.62
483.361	-236.62
483.486	-331.62
483.612	41.38
483.737	-416.62
483.862	-148.62
483.987	-73.62
484.113	-434.62
484.238	-79.62
484.363	-331.62
484.488	-255.62
484.614	-14.62
484.739	-209.62
484.864	67.38
484.989	399.38
485.114	-66.62
485.24	-189.62
485.365	-235.62
485.49	-427.62
485.615	1.38
485.74	-195.62
485.865	-94.62
485.991	-128.62
486.116	-55.62
486.241	-375.62
486.366	-351.62
486.491	-40.62
486.616	-271.62
486.742	-212.62
486.867	-163.62
486.992	-335.62
487.117	-304.62
487.242	-315.62
487.367	-437.62
487.492	-202.62
487.617	-41.62
487.742	-137.62
487.868	-308.62
487.993	-28.62
488.118	-90.62
488.243	-103.62
488.368	-258.62
488.493	-441.62
488.618	-238.62
488.743	-250.62
488.868	-296.62
488.993	-205.62
489.118	45.38
489.243	-170.62
489.368	-286.62
489.493	22.38
489.618	-144.62
489.743	-321.62
489.868	-147.62
489.993	-245.62
490.118	-415.62
490.243	391.38
490.368	-250.62
490.493	-24.62
490.618	20.38
490.743	-436.62
490.868	-121.62
490.993	-105.62
491.118	-1.62
491.243	-301.62
491.368	-306.62
491.493	17.38
491.618	-175.62
491.743	-214.62
491.868	-270.62
491.993	-223.62
492.118	-252.62
492.243	-130.62
492.368	-67.62
492.493	-280.62
492.618	137.38
492.743	-242.62
492.867	15.38
492.992	-159.62
493.117	-20.62
493.242	-262.62
493.367	-185.62
493.492	44.38
493.617	-269.62
493.742	92.38
493.867	-208.62
493.991	-377.62
494.116	-168.62
494.241	-142.62
494.366	-185.62
494.491	-57.62
494.616	72.38
494.74	-294.62
494.865	-363.62
494.99	-253.62
495.115	-201.62
495.24	-134.62
495.365	-222.62
495.489	-228.62
495.614	-99.62
495.739	-208.62
495.864	-229.62
495.989	-403.62
496.113	-2.62
496.238	-118.62
496.363	-262.62
496.488	-330.62
496.612	16.38
496.737	-267.62
496.862	-200.62
496.987	-255.62
497.111	-321.62
497.236	-326.62
497.361	-291.62
497.486	89.38
497.61	8.38
497.735	-164.62
497.86	-58.62
497.984	-37.62
498.109	-410.62
498.234	-275.62
498.359	-224.62
498.483	-153.62
498.608	-167.62
498.733	-242.62
498.857	-325.62
498.982	-151.62
499.107	-377.62
499.231	-164.62
499.356	-251.62
499.481	83.38
499.605	-504.62
499.73	-350.62
499.855	20.38
499.979	-282.62
500.104	-184.62
500.228	188.38
500.353	-223.62
500.478	-359.62
500.602	-127.62
500.727	58.38
500.852	-39.62
500.976	-445.62
501.101	-241.62
501.225	182.38
501.35	-306.62
501.474	-287.62
501.599	8.38
501.724	-204.62
501.848	-179.62
501.973	110.38
502.097	-338.62
502.222	-432.62
502.346	-52.62
502.471	-110.62
502.595	-267.62
502.72	-335.62
502.844	-329.62
502.969	-194.62
503.094	172.38
503.218	-384.62
503.343	-250.62
503.467	-299.62
503.592	-238.62
503.716	-227.62
503.841	-122.62
503.965	190.38
504.089	-206.62
504.214	-345.62
504.338	-242.62
504.463	-0.62
504.587	-116.62
504.712	-145.62
504.836	-193.62
504.961	250.38
505.085	134.38
505.21	-250.62
505.334	-270.62
505.458	220.38
505.583	-347.62
505.707	-72.62
505.832	-250.62
505.956	-160.62
506.08	-301.62
506.205	-247.62
506.329	125.38
506.454	-375.62
506.578	-152.62
506.702	-281.62
506.827	136.38
506.951	-73.62
507.076	-172.62
507.2	-345.62
507.324	-26.62
507.449	73.38
507.573	-178.62
507.697	-251.62
507.822	-148.62
507.946	-226.62
508.07	-417.62
508.195	-193.62
508.319	-215.62
508.443	-129.62
508.567	-411.62
508.692	-345.62
508.816	-313.62
508.94	-172.62
509.065	-435.62
509.189	-63.62
509.313	-66.62
509.437	8.38
509.562	-208.62
509.686	-163.62
509.81	-224.62
509.935	-87.62
510.059	69.38
510.183	-315.62
510.307	-360.62
510.431	-5.62
510.556	-203.62
510.68	-261.62
510.804	-434.62
510.928	-181.62
511.053	-370.62
511.177	-377.62
511.301	-173.62
511.425	-264.62
511.549	-147.62
511.674	-153.62
511.798	-158.62
511.922	-96.62
512.046	154.38
512.17	-209.62
512.294	-346.62
512.419	-109.62
512.543	-60.62
512.667	-171.62
512.791	-307.62
512.915	-96.62
513.039	-225.62
513.163	-48.62
513.288	117.38
513.412	-245.62
513.536	62.38
513.66	-299.62
513.784	-185.62
513.908	-106.62
514.032	-136.62
514.156	-9.62
514.28	-52.62
514.404	-184.62
514.528	-184.62
514.653	-67.62
514.777	14.38
514.901	-93.62
515.025	119.38
515.149	-234.62
515.273	-93.62
515.397	-196.62
515.521	-199.62
515.645	-203.62
515.769	-304.62
515.893	-263.62
516.017	-268.62
516.141	-415.62
516.265	-236.62
516.389	-250.62
516.513	-151.62
516.637	-280.62
516.761	-492.62
516.885	-280.62
517.009	-201.62
517.133	-72.62
517.257	-247.62
517.381	-11.62
517.505	-17.62
517.629	72.38
517.753	-206.62
517.877	-373.62
518.001	-246.62
518.125	-189.62
518.248	-32.62
518.372	-128.62
518.496	-366.62
518.62	-87.62
518.744	-178.62
518.868	-124.62
518.992	-136.62
519.116	-323.62
519.24	402.38
519.364	47.38
519.488	-140.62
519.611	-418.62
519.735	-208.62
519.859	-194.62
519.983	-16.62
520.107	-248.62
520.231	8.38
520.355	-156.62
520.478	-287.62
520.602	-345.62
520.726	92.38
520.85	-221.62
520.974	6.38
521.098	-246.62
521.221	-354.62
521.345	60.38
521.469	-283.62
521.593	-210.62
521.717	35.38
521.84	-149.62
521.964	-300.62
522.088	-241.62
522.212	-206.62
522.335	-402.62
522.459	-268.62
522.583	198.38
522.707	-354.62
522.83	-485.62
522.954	-298.62
523.078	-291.62
523.202	-21.62
523.325	-231.62
523.449	-169.62
523.573	-181.62
523.697	-289.62
523.82	-187.62
523.944	-211.62
524.068	-186.62
524.191	-216.62
524.315	-419.62
524.439	-165.62
524.562	-7.62
524.686	-247.62
524.81	-308.62
524.933	-262.62
525.057	-267.62
525.181	-132.62
525.304	-372.62
525.428	92.38
525.552	-358.62
525.675	-158.62
525.799	-287.62
525.923	-112.62
526.046	-33.62
526.17	-382.62
526.293	-347.62
526.417	-141.62
526.541	12.38
526.664	-247.62
526.788	-215.62
526.911	-79.62
527.035	-345.62
527.159	-239.62
527.282	-260.62
527.406	-276.62
527.529	-53.62
527.653	-369.62
527.776	-113.62
527.9	-257.62
528.024	-282.62
528.147	-242.62
528.271	26.38
528.394	4.38
528.518	33.38
528.641	-339.62
528.765	-129.62
528.888	-170.62
529.012	-112.62
529.135	-266.62
529.259	92.38
529.382	-214.62
529.506	-286.62
529.629	-97.62
529.753	-397.62
529.876	104.38
530	58.38
530.123	-114.62
530.247	-320.62
530.37	-229.62
530.493	-154.62
530.617	-264.62
530.74	8.38
530.864	-50.62
530.987	-354.62
531.111	-96.62
531.234	-324.62
531.357	25.38
531.481	-4.62
531.604	24.38
531.728	-382.62
531.851	-89.62
531.974	-101.62
532.098	-227.62
532.221	-289.62
532.345	-219.62
532.468	-351.62
532.591	147.38
532.715	-186.62
532.838	-259.62
532.961	-205.62
533.085	-300.62
533.208	-134.62
533.331	-409.62
533.455	-9.62
533.578	-226.62
533.701	-91.62
533.825	8.38
533.948	-289.62
534.071	-237.62
534.195	-56.62
534.318	-322.62
534.441	-267.62
534.564	-54.62
534.688	-247.62
534.811	-24.62
534.934	-211.62
535.058	-126.62
535.181	45.38
535.304	-31.62
535.427	-300.62
535.551	-403.62
535.674	-213.62
535.797	-61.62
535.92	-32.62
536.043	-347.62
536.167	-331.62
536.29	-61.62
536.413	-127.62
536.536	-339.62
536.66	-248.62
536.783	-99.62
536.906	-164.62
537.029	-266.62
537.152	-239.62
537.275	-171.62
537.399	117.38
537.522	-432.62
537.645	-236.62
537.768	-208.62
537.891	-109.62
538.014	-189.62
538.138	-274.62
538.261	-247.62
538.384	-175.62
538.507	-352.62
538.63	-233.62
538.753	134.38
538.876	-119.62
538.999	-321.62
539.123	-120.62
539.246	164.38
539.369	255.38
539.492	-257.62
539.615	-338.62
539.738	189.38
539.861	-258.62
539.984	-159.62
540.107	-128.62
540.23	-268.62
540.353	-319.62
540.476	-495.62
540.599	-53.62
540.722	-347.62
540.846	-118.62
540.969	-422.62
541.092	-136.62
541.215	-324.62
541.338	-136.62
541.461	-349.62
541.584	-212.62
541.707	-145.62
541.83	-274.62
541.953	-133.62
542.076	-111.62
542.199	-171.62
542.322	65.38
542.445	129.38
542.567	-220.62
542.69	-116.62
542.813	-224.62
542.936	-65.62
543.059	-145.62
543.182	256.38
543.305	52.38
543.428	-107.62
543.551	-190.62
543.674	116.38
543.797	-60.62
543.92	-208.62
544.043	299.38
544.166	-285.62
544.288	-189.62
544.411	-85.62
544.534	-336.62
544.657	-122.62
544.78	-225.62
544.903	-98.62
545.026	-178.62
545.149	-306.62
545.271	-306.62
545.394	-223.62
545.517	-390.62
545.64	386.38
545.763	-197.62
545.886	-272.62
546.008	-117.62
546.131	25.38
546.254	-152.62
546.377	-380.62
546.5	-35.62
546.623	-44.62
546.745	-327.62
546.868	-215.62
546.991	32.38
547.114	-159.62
547.236	-169.62
547.359	-310.62
547.482	-102.62
547.605	-266.62
547.728	-250.62
547.85	-364.62
547.973	-299.62
548.096	-197.62
548.219	-48.62
548.341	-198.62
548.464	-396.62
548.587	-165.62
548.709	-200.62
548.832	-173.62
548.955	291.38
549.078	19.38
549.2	-296.62
549.323	-223.62
549.446	168.38
549.568	-159.62
549.691	-74.62
549.814	-21.62
549.936	-271.62
550.059	-186.62
550.182	-328.62
550.304	-407.62
550.427	-175.62
550.55	-226.62
550.672	-288.62
550.795	265.38
550.917	-282.62
551.04	-177.62
551.163	-88.62
551.285	56.38
551.408	14.38
551.531	351.38
551.653	-346.62
551.776	-94.62
551.898	-96.62
552.021	-95.62
552.143	-174.62
552.266	-194.62
552.389	-173.62
552.511	-350.62
552.634	-369.62
552.756	-315.62
552.879	211.38
553.001	43.38
553.124	-396.62
553.246	-290.62
553.369	53.38
553.492	-173.62
553.614	30.38
553.737	-467.62
553.859	-17.62
553.982	-9.62
554.104	-121.62
554.227	-282.62
554.349	-177.62
554.472	-191.62
554.594	-455.62
554.716	25.38
554.839	-48.62
554.961	-115.62
555.084	-328.62
555.206	-152.62
555.329	-387.62
555.451	-346.62
555.574	-86.62
555.696	-323.62
555.819	-159.62
555.941	-162.62
556.063	-46.62
556.186	-178.62
556.308	-81.62
556.431	229.38
556.553	-48.62
556.675	-288.62
556.798	-221.62
556.92	-16.62
557.043	-267.62
557.165	-371.62
557.287	22.38
557.41	-188.62
557.532	-129.62
557.654	-222.62
557.777	33.38
557.899	-132.62
558.021	-224.62
558.144	61.38
558.266	50.38
558.388	233.38
558.511	-232.62
558.633	-180.62
558.755	-263.62
558.878	-282.62
559	-49.62
559.122	-417.62
559.244	-241.62
559.367	-172.62
559.489	7.38
559.611	130.38
559.734	-167.62
559.856	-128.62
559.978	-150.62
560.1	-163.62
560.223	-160.62
560.345	75.38
560.467	-371.62
560.589	-210.62
560.712	-221.62
560.834	174.38
560.956	-342.62
561.078	-197.62
561.2	-112.62
561.323	105.38
561.445	-375.62
561.567	-250.62
561.689	-328.62
561.811	-45.62
561.934	-195.62
562.056	-196.62
562.178	-66.62
562.3	-213.62
562.422	-46.62
562.544	-166.62
562.666	42.38
562.789	-90.62
562.911	-158.62
563.033	-30.62
563.155	-23.62
563.277	-243.62
563.399	-438.62
563.521	-220.62
563.643	-297.62
563.766	-159.62
563.888	23.38
564.01	-142.62
564.132	-321.62
564.254	-371.62
564.376	85.38
564.498	-114.62
564.62	122.38
564.742	-139.62
564.864	-394.62
564.986	-115.62
565.108	267.38
565.23	-255.62
565.352	-25.62
565.474	-112.62
565.597	172.38
565.719	106.38
565.841	-350.62
565.963	-96.62
566.085	-141.62
566.207	-192.62
566.329	39.38
566.451	31.38
566.573	-198.62
566.695	-211.62
566.817	200.38
566.938	-318.62
567.06	-177.62
567.182	-118.62
567.304	-216.62
567.426	-347.62
567.548	65.38
567.67	-86.62
567.792	-181.62
567.914	-255.62
568.036	-152.62
568.158	-153.62
568.28	-294.62
568.402	-77.62
568.524	-201.62
568.646	-307.62
568.767	-209.62
568.889	12.38
569.011	-168.62
569.133	-232.62
569.255	-406.62
569.377	-346.62
569.499	-117.62
569.621	-237.62
569.742	210.38
569.864	29.38
569.986	284.38
570.108	-23.62
570.23	-327.62
570.352	78.38
570.473	-102.62
570.595	-169.62
570.717	-335.62
570.839	-128.62
570.961	-12.62
571.082	-192.62
571.204	-270.62
571.326	-291.62
571.448	30.38
571.57	65.38
571.691	-133.62
571.813	-120.62
571.935	54.38
572.057	-153.62
572.178	-300.62
572.3	97.38
572.422	115.38
572.544	190.38
572.665	-263.62
572.787	-307.62
572.909	126.38
573.031	-66.62
573.152	-358.62
573.274	-49.62
573.396	-29.62
573.517	-18.62
573.639	-423.62
573.761	-246.62
573.882	-135.62
574.004	-13.62
574.126	-288.62
574.247	12.38
574.369	-12.62
574.491	-145.62
574.612	-293.62
574.734	-173.62
574.856	-145.62
574.977	-33.62
575.099	-118.62
575.221	-129.62
575.342	-158.62
575.464	-106.62
575.585	-74.62
575.707	-297.62
575.829	94.38
575.95	81.38
576.072	-200.62
576.193	-302.62
576.315	-194.62
576.437	-163.62
576.558	-178.62
576.68	-187.62
576.801	238.38
576.923	-333.62
577.044	68.38
577.166	-407.62
577.287	-113.62
577.409	-201.62
577.531	-202.62
577.652	-56.62
577.774	-406.62
577.895	-145.62
578.017	-275.62
578.138	-283.62
578.26	-159.62
578.381	-65.62
578.503	-275.62
578.624	-266.62
578.746	-347.62
578.867	-197.62
578.988	-87.62
579.11	101.38
579.231	-96.62
579.353	-212.62
579.474	-163.62
579.596	-229.62
579.717	17.38
579.839	-167.62
579.96	-441.62
580.081	-73.62
580.203	-195.62
580.324	-97.62
580.446	-50.62
580.567	-147.62
580.688	200.38
580.81	-308.62
580.931	-218.62
581.053	-363.62
581.174	-109.62
581.295	-225.62
581.417	-49.62
581.538	-30.62
581.659	5.38
581.781	-121.62
581.902	-265.62
582.024	-294.62
582.145	-343.62
582.266	-268.62
582.388	-149.62
582.509	-336.62
582.63	-125.62
582.751	-194.62
582.873	-216.62
582.994	-251.62
583.115	-153.62
583.237	-76.62
583.358	-247.62
583.479	-410.62
583.6	41.38
583.722	-165.62
583.843	-307.62
583.964	58.38
584.086	-209.62
584.207	-22.62
584.328	-311.62
584.449	-69.62
584.57	-85.62
584.692	-101.62
584.813	829.38
584.934	-113.62
585.055	-276.62
585.177	-39.62
585.298	-136.62
585.419	-344.62
585.54	178.38
585.661	-20.62
585.783	-91.62
585.904	-299.62
586.025	92.38
586.146	-268.62
586.267	-213.62
586.388	-180.62
586.51	318.38
586.631	-299.62
586.752	-328.62
586.873	-205.62
586.994	-346.62
587.115	-337.62
587.236	-242.62
587.357	-373.62
587.479	-278.62
587.6	35.38
587.721	-202.62
587.842	-297.62
587.963	164.38
588.084	106.38
588.205	-291.62
588.326	-206.62
588.447	-130.62
588.568	-182.62
588.689	-123.62
588.81	-106.62
588.931	-183.62
589.052	-248.62
589.174	-282.62
589.295	-96.62
589.416	-101.62
589.537	48.38
589.658	-210.62
589.779	-379.62
589.9	57.38
590.021	-222.62
590.142	-261.62
590.263	-374.62
590.384	-138.62
590.505	197.38
590.626	-301.62
590.747	-130.62
590.867	-60.62
590.988	-29.62
591.109	-199.62
591.23	76.38
591.351	-11.62
591.472	-136.62
591.593	-208.62
591.714	-128.62
591.835	-202.62
591.956	-216.62
592.077	-383.62
592.198	-185.62
592.319	-86.62
592.44	-14.62
592.56	-254.62
592.681	-378.62
592.802	-63.62
592.923	-146.62
593.044	-281.62
593.165	-325.62
593.286	-70.62
593.407	-266.62
593.527	25.38
593.648	-330.62
593.769	-52.62
593.89	65.38
594.011	-171.62
594.132	-264.62
594.252	-72.62
594.373	-285.62
594.494	-393.62
594.615	-201.62
594.736	-207.62
594.856	57.38
594.977	-317.62
595.098	-119.62
595.219	-274.62
595.34	-89.62
595.46	-352.62
595.581	171.38
595.702	-159.62
595.823	-322.62
595.943	-116.62
596.064	-179.62
596.185	97.38
596.306	-400.62
596.426	-294.62
596.547	-368.62
596.668	-83.62
596.788	-76.62
596.909	-165.62
597.03	-95.62
597.151	-145.62
597.271	-254.62
597.392	-208.62
597.513	-91.62
597.633	11.38
597.754	-108.62
597.875	-163.62
597.995	103.38
598.116	-82.62
598.237	-184.62
598.357	-275.62
598.478	-289.62
598.599	192.38
598.719	-174.62
598.84	-345.62
598.96	-262.62
599.081	-136.62
599.202	-160.62
599.322	-298.62
599.443	-326.62
599.563	-60.62
599.684	77.38
599.805	-251.62
599.925	-363.62
600.046	214.38
600.166	-185.62
600.287	-66.62
600.407	-131.62
600.528	31.38
600.649	-33.62
600.769	-149.62
600.89	-370.62
601.01	0.38
601.131	-202.62
601.251	148.38
601.372	-136.62
601.492	-208.62
601.613	-269.62
601.733	-254.62
601.854	208.38
601.974	296.38
602.095	126.38
602.215	-327.62
602.336	-323.62
602.456	195.38
602.577	-225.62
602.697	647.38
602.817	2.38
602.938	-106.62
603.058	-32.62
603.179	-315.62
603.299	-291.62
603.42	-348.62
603.54	-74.62
603.66	-329.62
603.781	-83.62
603.901	-242.62
604.022	128.38
604.142	-199.62
604.262	-127.62
604.383	-254.62
604.503	95.38
604.624	-288.62
604.744	-120.62
604.864	-27.62
604.985	-204.62
605.105	-124.62
605.225	-140.62
605.346	-110.62
605.466	13.38
605.586	187.38
605.707	262.38
605.827	-316.62
605.947	-197.62
606.068	-192.62
606.188	-198.62
606.308	-207.62
606.429	59.38
606.549	-234.62
606.669	-349.62
606.789	-273.62
606.91	-46.62
607.03	-285.62
607.15	-219.62
607.27	-77.62
607.391	15.38
607.511	-269.62
607.631	-289.62
607.751	159.38
607.872	-18.62
607.992	-335.62
608.112	9.38
608.232	-229.62
608.353	-305.62
608.473	-238.62
608.593	121.38
608.713	310.38
608.833	-132.62
608.954	-251.62
609.074	-209.62
609.194	-292.62
609.314	203.38
609.434	-2.62
609.554	-156.62
609.675	-47.62
609.795	-231.62
609.915	-308.62
610.035	302.38
610.155	-168.62
610.275	-161.62
610.395	-28.62
610.516	-351.62
610.636	-113.62
610.756	-45.62
610.876	-22.62
610.996	-301.62
611.116	206.38
611.236	-325.62
611.356	-251.62
611.476	-143.62
611.596	-104.62
611.716	100.38
611.836	-312.62
611.957	-315.62
612.077	-153.62
612.197	-49.62
612.317	-283.62
612.437	82.38
612.557	63.38
612.677	-164.62
612.797	-140.62
612.917	-331.62
613.037	-45.62
613.157	-102.62
613.277	-87.62
613.397	102.38
613.517	142.38
613.637	-256.62
613.757	-149.62
613.877	-244.62
613.997	-16.62
614.117	-209.62
614.237	-194.62
614.356	-117.62
614.476	59.38
614.596	48.38
614.716	-203.62
614.836	-167.62
614.956	-4.62
615.076	-96.62
615.196	-319.62
615.316	-97.62
615.436	-47.62
615.556	135.38
615.676	178.38
615.795	-88.62
615.915	-101.62
616.035	-215.62
616.155	-155.62
616.275	-292.62
616.395	-209.62
616.515	5.38
616.635	-410.62
616.754	-432.62
616.874	-44.62
616.994	-108.62
617.114	269.38
617.234	31.38
617.354	35.38
617.473	369.38
617.593	-202.62
617.713	-127.62
617.833	-37.62
617.953	-48.62
618.072	-493.62
618.192	-254.62
618.312	119.38
618.432	83.38
618.551	-276.62
618.671	-270.62
618.791	-20.62
618.911	-89.62
619.03	-180.62
619.15	-120.62
619.27	-161.62
619.39	-217.62
619.509	-184.62
619.629	-187.62
619.749	-254.62
619.868	-91.62
619.988	-390.62
620.108	-231.62
620.228	754.38
620.347	-110.62
620.467	-276.62
620.587	-310.62
620.706	67.38
620.826	-225.62
620.946	-300.62
621.065	-18.62
621.185	280.38
621.305	-190.62
621.424	-225.62
621.544	-418.62
621.663	-16.62
621.783	-208.62
621.903	204.38
622.022	-274.62
622.142	-127.62
622.261	184.38
622.381	-112.62
622.501	-38.62
622.62	-210.62
622.74	-109.62
622.859	-190.62
622.979	103.38
623.099	-215.62
623.218	-23.62
623.338	143.38
623.457	-53.62
623.577	-223.62
623.696	-39.62
623.816	-390.62
623.935	-271.62
624.055	-255.62
624.174	-118.62
624.294	-172.62
624.413	-356.62
624.533	-60.62
624.652	132.38
624.772	-262.62
624.891	-380.62
625.011	26.38
625.13	-191.62
625.25	-358.62
625.369	-218.62
625.489	-184.62
625.608	-253.62
625.728	-134.62
625.847	-135.62
625.966	-272.62
626.086	-233.62
626.205	-369.62
626.325	-94.62
626.444	-122.62
626.564	172.38
626.683	-12.62
626.802	-1.62
626.922	145.38
627.041	-14.62
627.161	-194.62
627.28	24.38
627.399	34.38
627.519	-89.62
627.638	-386.62
627.757	-278.62
627.877	-165.62
627.996	-156.62
628.115	-52.62
628.235	-17.62
628.354	-313.62
628.473	-105.62
628.593	96.38
628.712	-125.62
628.831	-96.62
628.951	-357.62
629.07	71.38
629.189	-129.62
629.309	-125.62
629.428	216.38
629.547	-337.62
629.666	-45.62
629.786	-108.62
629.905	-277.62
630.024	-28.62
630.143	-78.62
630.263	-126.62
630.382	280.38
630.501	-203.62
630.62	-237.62
630.74	-293.62
630.859	85.38
630.978	-192.62
631.097	-337.62
631.216	-259.62
631.336	142.38
631.455	-259.62
631.574	-210.62
631.693	-42.62
631.812	-177.62
631.932	-425.62
632.051	74.38
632.17	315.38
632.289	30.38
632.408	-238.62
632.527	-157.62
632.646	-112.62
632.766	-243.62
632.885	186.38
633.004	-361.62
633.123	-119.62
633.242	-252.62
633.361	642.38
633.48	-261.62
633.599	-233.62
633.718	42.38
633.838	-105.62
633.957	-362.62
634.076	-63.62
634.195	-159.62
634.314	-45.62
634.433	-19.62
634.552	-204.62
634.671	-72.62
634.79	226.38
634.909	27.38
635.028	-53.62
635.147	3.38
635.266	-318.62
635.385	-92.62
635.504	-301.62
635.623	-21.62
635.742	-338.62
635.861	-374.62
635.98	-72.62
636.099	-214.62
636.218	-142.62
636.337	-144.62
636.456	300.38
636.575	7.38
636.694	-134.62
636.813	-349.62
636.932	-289.62
637.051	-101.62
637.17	-397.62
637.289	-103.62
637.408	-329.62
637.526	-75.62
637.645	-457.62
637.764	-348.62
637.883	-197.62
638.002	49.38
638.121	335.38
638.24	-284.62
638.359	43.38
638.478	-193.62
638.597	-311.62
638.715	345.38
638.834	-134.62
638.953	44.38
639.072	-334.62
639.191	-379.62
639.31	35.38
639.428	-116.62
639.547	-109.62
639.666	-37.62
639.785	-38.62
639.904	-91.62
640.023	-333.62
640.141	-229.62
640.26	-158.62
640.379	-26.62
640.498	-433.62
640.616	-86.62
640.735	-122.62
640.854	104.38
640.973	-335.62
641.092	-14.62
641.21	-8.62
641.329	-156.62
641.448	-17.62
641.567	228.38
641.685	-125.62
641.804	-163.62
641.923	-164.62
642.041	-292.62
642.16	-153.62
642.279	111.38
642.398	-220.62
642.516	-270.62
642.635	159.38
642.754	-157.62
642.872	23.38
642.991	1.38
643.11	-207.62
643.228	-284.62
643.347	-357.62
643.466	-385.62
643.584	48.38
643.703	239.38
643.821	-163.62
643.94	-118.62
644.059	-26.62
644.177	60.38
644.296	-335.62
644.415	-264.62
644.533	-89.62
644.652	43.38
644.77	-381.62
644.889	-338.62
645.008	41.38
645.126	-226.62
645.245	-9.62
645.363	37.38
645.482	-74.62
645.6	-111.62
645.719	-214.62
645.837	-217.62
645.956	-82.62
646.074	-280.62
646.193	-286.62
646.312	3.38
646.43	173.38
646.549	251.38
646.667	-454.62
646.786	-313.62
646.904	38.38
647.023	-21.62
647.141	-334.62
647.26	-2.62
647.378	416.38
647.496	-153.62
647.615	-67.62
647.733	-115.62
647.852	195.38
647.97	-207.62
648.089	2.38
648.207	-18.62
648.326	116.38
648.444	-132.62
648.562	-167.62
648.681	-95.62
648.799	-123.62
648.918	-59.62
649.036	-136.62
649.154	-231.62
649.273	67.38
649.391	-165.62
649.51	-282.62
649.628	-329.62
649.746	173.38
649.865	-178.62
649.983	-298.62
650.101	-118.62
650.22	-124.62
650.338	-210.62
650.456	-214.62
650.575	-236.62
650.693	-258.62
650.811	0.38
650.93	-354.62
651.048	1056.38
651.166	329.38
651.285	-130.62
651.403	-39.62
651.521	-116.62
651.639	-109.62
651.758	67.38
651.876	194.38
651.994	-297.62
652.112	128.38
652.231	-86.62
652.349	-275.62
652.467	-474.62
652.585	-109.62
652.704	22.38
652.822	-393.62
652.94	-359.62
653.058	-57.62
653.176	-195.62
653.295	-160.62
653.413	-21.62
653.531	-222.62
653.649	-130.62
653.767	-294.62
653.886	-326.62
654.004	-227.62
654.122	195.38
654.24	-364.62
654.358	-294.62
654.476	-113.62
654.594	203.38
654.713	-214.62
654.831	-397.62
654.949	-168.62
655.067	29.38
655.185	-357.62
655.303	-256.62
655.421	-158.62
655.539	101.38
655.658	-139.62
655.776	-229.62
655.894	20.38
656.012	181.38
656.13	-422.62
656.248	-204.62
656.366	-236.62
656.484	-171.62
656.602	-288.62
656.72	-300.62
656.838	-25.62
656.956	-148.62
657.074	-100.62
657.192	-125.62
657.31	-242.62
657.428	-158.62
657.546	-114.62
657.664	-129.62
657.782	-125.62
657.9	71.38
658.018	-212.62
658.136	-165.62
658.254	47.38
658.372	145.38
658.49	-319.62
658.608	-318.62
658.726	-16.62
658.844	14.38
658.962	-255.62
659.08	-374.62
659.198	-49.62
659.316	-103.62
