Data from HR4D30811__0__00000.txt Node

Date: Fri Jan 26 16:31:26 MST 2024
User: Brock
Spectrometer: HR4D3081
Trigger mode: 4
Integration Time (sec): 8.000000E0
Scans to average: 1
Electric dark correction enabled: true
Nonlinearity correction enabled: false
Boxcar width: 0
XAxis mode: Wavelengths
Number of Pixels in Spectrum: 3648
>>>>>Begin Spectral Data<<<<<
197.25	-1225.38
197.385	-1225.38
197.519	-1225.38
197.653	-1213.38
197.787	181.62
197.922	-152.38
198.056	59.62
198.19	26.62
198.324	62.62
198.459	-220.38
198.593	436.62
198.727	-31.38
198.861	-120.38
198.996	211.62
199.13	-261.38
199.264	-199.38
199.398	-64.38
199.533	252.62
199.667	133.62
199.801	-59.38
199.935	-284.38
200.07	-18.38
200.204	9.62
200.338	-185.38
200.472	-201.38
200.606	-334.38
200.741	-140.38
200.875	-142.38
201.009	-131.38
201.143	-251.38
201.277	87.62
201.412	87.62
201.546	229.62
201.68	167.62
201.814	-193.38
201.948	60.62
202.082	-68.38
202.217	-325.38
202.351	-151.38
202.485	-44.38
202.619	-265.38
202.753	-348.38
202.887	289.62
203.021	121.62
203.156	232.62
203.29	32.62
203.424	-45.38
203.558	-176.38
203.692	-75.38
203.826	-292.38
203.96	-112.38
204.094	173.62
204.229	-154.38
204.363	-197.38
204.497	-335.38
204.631	-287.38
204.765	-207.38
204.899	-171.38
205.033	-151.38
205.167	-213.38
205.301	-4.38
205.435	-308.38
205.569	-92.38
205.704	-83.38
205.838	-286.38
205.972	-133.38
206.106	512.62
206.24	-129.38
206.374	-207.38
206.508	50.62
206.642	20.62
206.776	-103.38
206.91	182.62
207.044	-6.38
207.178	139.62
207.312	6.62
207.446	-149.38
207.58	-158.38
207.714	-247.38
207.848	141.62
207.982	-345.38
208.116	37.62
208.25	-214.38
208.384	-165.38
208.518	-170.38
208.652	-227.38
208.786	-257.38
208.92	190.62
209.054	-60.38
209.188	-280.38
209.322	-118.38
209.456	-150.38
209.59	-271.38
209.724	-107.38
209.858	-45.38
209.992	-94.38
210.126	-176.38
210.26	-169.38
210.394	-82.38
210.528	-33.38
210.662	-194.38
210.796	-162.38
210.929	162.62
211.063	5.62
211.197	-93.38
211.331	-24.38
211.465	-189.38
211.599	33.62
211.733	126.62
211.867	-178.38
212.001	-204.38
212.135	-70.38
212.269	-225.38
212.402	-198.38
212.536	79.62
212.67	-107.38
212.804	-246.38
212.938	40.62
213.072	-235.38
213.206	-86.38
213.34	-145.38
213.473	-158.38
213.607	96.62
213.741	-290.38
213.875	-272.38
214.009	-214.38
214.143	-161.38
214.277	-129.38
214.41	-247.38
214.544	230.62
214.678	116.62
214.812	264.62
214.946	-246.38
215.08	-175.38
215.213	-216.38
215.347	-128.38
215.481	-48.38
215.615	-313.38
215.749	31.62
215.882	-244.38
216.016	-307.38
216.15	109.62
216.284	200.62
216.418	23.62
216.551	90.62
216.685	30.62
216.819	-290.38
216.953	-147.38
217.086	256.62
217.22	-172.38
217.354	-24.38
217.488	86.62
217.621	91.62
217.755	-35.38
217.889	-162.38
218.023	-49.38
218.156	60.62
218.29	55.62
218.424	163.62
218.558	-238.38
218.691	-373.38
218.825	-110.38
218.959	446.62
219.092	-141.38
219.226	-332.38
219.36	-290.38
219.494	-50.38
219.627	-157.38
219.761	-196.38
219.895	-107.38
220.028	-301.38
220.162	506.62
220.296	138.62
220.429	-48.38
220.563	-94.38
220.697	-46.38
220.83	-257.38
220.964	-146.38
221.098	-302.38
221.231	-252.38
221.365	34.62
221.499	-226.38
221.632	-234.38
221.766	24.62
221.9	-47.38
222.033	76.62
222.167	84.62
222.3	-217.38
222.434	0.62
222.568	277.62
222.701	-142.38
222.835	-149.38
222.968	-243.38
223.102	-228.38
223.236	-231.38
223.369	-11.38
223.503	-12.38
223.636	-229.38
223.77	-168.38
223.904	-37.38
224.037	-157.38
224.171	41.62
224.304	-35.38
224.438	-209.38
224.571	-90.38
224.705	171.62
224.839	-40.38
224.972	-336.38
225.106	-47.38
225.239	-81.38
225.373	73.62
225.506	-53.38
225.64	83.62
225.773	-130.38
225.907	-194.38
226.04	-325.38
226.174	-119.38
226.307	-35.38
226.441	-125.38
226.575	8.62
226.708	137.62
226.842	-97.38
226.975	-163.38
227.109	-217.38
227.242	3.62
227.375	37.62
227.509	-59.38
227.642	-153.38
227.776	65.62
227.909	32.62
228.043	-214.38
228.176	199.62
228.31	-255.38
228.443	322.62
228.577	-59.38
228.71	-162.38
228.844	-0.38
228.977	-288.38
229.111	-186.38
229.244	59.62
229.377	-312.38
229.511	-39.38
229.644	-174.38
229.778	-154.38
229.911	-191.38
230.044	-115.38
230.178	-23.38
230.311	-219.38
230.445	-2.38
230.578	-201.38
230.711	-103.38
230.845	298.62
230.978	43.62
231.112	-218.38
231.245	-241.38
231.378	-208.38
231.512	54.62
231.645	-398.38
231.779	-345.38
231.912	-50.38
232.045	72.62
232.179	-164.38
232.312	-135.38
232.445	36.62
232.579	262.62
232.712	158.62
232.845	-169.38
232.979	-372.38
233.112	54.62
233.245	-103.38
233.379	-298.38
233.512	-22.38
233.645	-259.38
233.779	-275.38
233.912	37.62
234.045	-157.38
234.179	50.62
234.312	-160.38
234.445	9.62
234.578	-33.38
234.712	17.62
234.845	38.62
234.978	-163.38
235.112	-57.38
235.245	100.62
235.378	-171.38
235.511	-19.38
235.645	17.62
235.778	-7.38
235.911	-154.38
236.044	-303.38
236.178	275.62
236.311	-254.38
236.444	-267.38
236.577	-239.38
236.711	-56.38
236.844	-425.38
236.977	-149.38
237.11	-200.38
237.243	2.62
237.377	-283.38
237.51	-217.38
237.643	937.62
237.776	-139.38
237.909	-151.38
238.043	-35.38
238.176	-234.38
238.309	-83.38
238.442	-303.38
238.575	-79.38
238.709	391.62
238.842	-11.38
238.975	-54.38
239.108	134.62
239.241	-277.38
239.374	-258.38
239.508	-197.38
239.641	189.62
239.774	398.62
239.907	-61.38
240.04	-276.38
240.173	35.62
240.306	234.62
240.44	-170.38
240.573	168.62
240.706	-157.38
240.839	20.62
240.972	-91.38
241.105	-74.38
241.238	39.62
241.371	-27.38
241.504	-39.38
241.638	-133.38
241.771	-48.38
241.904	-172.38
242.037	37.62
242.17	-199.38
242.303	-319.38
242.436	-126.38
242.569	-103.38
242.702	-194.38
242.835	-160.38
242.968	-24.38
243.101	-114.38
243.234	-227.38
243.367	-264.38
243.5	-125.38
243.634	-189.38
243.767	-291.38
243.9	-230.38
244.033	-244.38
244.166	80.62
244.299	-332.38
244.432	-281.38
244.565	25.62
244.698	-339.38
244.831	-179.38
244.964	-282.38
245.097	-196.38
245.23	-14.38
245.363	134.62
245.496	-274.38
245.629	-120.38
245.762	472.62
245.895	-263.38
246.028	-230.38
246.161	413.62
246.294	41.62
246.427	-236.38
246.559	95.62
246.692	-45.38
246.825	-159.38
246.958	-233.38
247.091	-287.38
247.224	-318.38
247.357	-201.38
247.49	144.62
247.623	-203.38
247.756	-250.38
247.889	303.62
248.022	-104.38
248.155	-285.38
248.288	-102.38
248.421	-227.38
248.553	101.62
248.686	-210.38
248.819	77.62
248.952	-251.38
249.085	181.62
249.218	-51.38
249.351	-68.38
249.484	145.62
249.617	-48.38
249.749	-244.38
249.882	-221.38
250.015	-251.38
250.148	-156.38
250.281	-252.38
250.414	-156.38
250.547	-167.38
250.679	211.62
250.812	-113.38
250.945	-0.38
251.078	-255.38
251.211	-155.38
251.344	-309.38
251.476	-172.38
251.609	-5.38
251.742	-259.38
251.875	-54.38
252.008	-207.38
252.14	-360.38
252.273	-127.38
252.406	182.62
252.539	-21.38
252.672	-82.38
252.804	156.62
252.937	-277.38
253.07	-31.38
253.203	-82.38
253.335	85.62
253.468	-373.38
253.601	-123.38
253.734	-83.38
253.866	-184.38
253.999	408.62
254.132	-3.38
254.265	-134.38
254.397	-157.38
254.53	-146.38
254.663	7.62
254.796	-221.38
254.928	-281.38
255.061	-258.38
255.194	-69.38
255.327	-292.38
255.459	-42.38
255.592	-286.38
255.725	158.62
255.857	-214.38
255.99	-26.38
256.123	-222.38
256.255	-235.38
256.388	-91.38
256.521	-257.38
256.653	-296.38
256.786	-241.38
256.919	-163.38
257.051	-253.38
257.184	-49.38
257.317	-237.38
257.449	-255.38
257.582	-101.38
257.715	-215.38
257.847	-214.38
257.98	-91.38
258.113	-219.38
258.245	-126.38
258.378	-354.38
258.51	-233.38
258.643	-228.38
258.776	28.62
258.908	-278.38
259.041	-88.38
259.174	-185.38
259.306	-247.38
259.439	-282.38
259.571	-186.38
259.704	-105.38
259.837	152.62
259.969	-214.38
260.102	-234.38
260.234	197.62
260.367	57.62
260.499	-230.38
260.632	-167.38
260.765	-182.38
260.897	-191.38
261.03	-239.38
261.162	-70.38
261.295	-65.38
261.427	101.62
261.56	-71.38
261.692	-247.38
261.825	-96.38
261.957	126.62
262.09	89.62
262.222	28.62
262.355	-264.38
262.487	-118.38
262.62	-267.38
262.752	-95.38
262.885	-156.38
263.017	7.62
263.15	-194.38
263.282	-79.38
263.415	-256.38
263.547	-47.38
263.68	176.62
263.812	-329.38
263.945	-91.38
264.077	-273.38
264.21	159.62
264.342	-282.38
264.475	-251.38
264.607	163.62
264.74	-396.38
264.872	-128.38
265.004	114.62
265.137	89.62
265.269	322.62
265.402	-248.38
265.534	-192.38
265.667	-153.38
265.799	86.62
265.931	-124.38
266.064	26.62
266.196	-138.38
266.329	-199.38
266.461	-181.38
266.593	18.62
266.726	-337.38
266.858	-143.38
266.99	-97.38
267.123	-158.38
267.255	-35.38
267.388	-141.38
267.52	-246.38
267.652	-223.38
267.785	140.62
267.917	-1.38
268.049	-143.38
268.182	372.62
268.314	72.62
268.446	-343.38
268.579	-226.38
268.711	216.62
268.843	-194.38
268.976	-81.38
269.108	335.62
269.24	142.62
269.373	-11.38
269.505	-158.38
269.637	-116.38
269.77	-231.38
269.902	142.62
270.034	-292.38
270.167	15.62
270.299	-37.38
270.431	23.62
270.563	-195.38
270.696	-2.38
270.828	-126.38
270.96	-82.38
271.092	-23.38
271.225	-256.38
271.357	-92.38
271.489	-194.38
271.621	-244.38
271.754	537.62
271.886	-222.38
272.018	-181.38
272.15	294.62
272.283	-290.38
272.415	-171.38
272.547	57.62
272.679	79.62
272.811	-93.38
272.944	-132.38
273.076	-332.38
273.208	-27.38
273.34	-95.38
273.473	-143.38
273.605	64.62
273.737	-288.38
273.869	-30.38
274.001	-405.38
274.133	8.62
274.266	-214.38
274.398	1440.62
274.53	29.62
274.662	144.62
274.794	21.62
274.926	70.62
275.059	-200.38
275.191	-28.38
275.323	-267.38
275.455	78.62
275.587	-207.38
275.719	-182.38
275.851	-134.38
275.983	45.62
276.116	-22.38
276.248	116.62
276.38	-267.38
276.512	-33.38
276.644	-163.38
276.776	-253.38
276.908	-40.38
277.04	-118.38
277.172	48.62
277.304	-205.38
277.437	-11.38
277.569	-196.38
277.701	-212.38
277.833	-114.38
277.965	-177.38
278.097	39.62
278.229	-201.38
278.361	-184.38
278.493	118.62
278.625	226.62
278.757	7.62
278.889	-283.38
279.021	-169.38
279.153	468.62
279.285	-241.38
279.417	570.62
279.549	71.62
279.681	-117.38
279.813	-189.38
279.945	38.62
280.077	-216.38
280.209	1105.62
280.341	-285.38
280.473	-171.38
280.605	84.62
280.737	-19.38
280.869	223.62
281.001	-64.38
281.133	-361.38
281.265	-26.38
281.397	-147.38
281.529	252.62
281.661	-260.38
281.793	-356.38
281.925	-236.38
282.057	-149.38
282.189	-164.38
282.321	-7.38
282.453	22.62
282.585	-248.38
282.717	125.62
282.849	-52.38
282.98	-156.38
283.112	-212.38
283.244	-30.38
283.376	-241.38
283.508	-361.38
283.64	-247.38
283.772	101.62
283.904	106.62
284.036	-299.38
284.168	128.62
284.299	-44.38
284.431	-30.38
284.563	-116.38
284.695	-166.38
284.827	-281.38
284.959	-43.38
285.091	-253.38
285.222	-269.38
285.354	-179.38
285.486	-115.38
285.618	-245.38
285.75	-132.38
285.882	170.62
286.013	35.62
286.145	-31.38
286.277	-3.38
286.409	94.62
286.541	23.62
286.673	-217.38
286.804	-216.38
286.936	-81.38
287.068	-179.38
287.2	-246.38
287.332	313.62
287.463	-314.38
287.595	-85.38
287.727	414.62
287.859	-111.38
287.99	-127.38
288.122	-184.38
288.254	20.62
288.386	-165.38
288.517	-290.38
288.649	-168.38
288.781	-3.38
288.913	-32.38
289.044	-305.38
289.176	168.62
289.308	-183.38
289.44	-343.38
289.571	-237.38
289.703	-280.38
289.835	44.62
289.967	-244.38
290.098	-308.38
290.23	-314.38
290.362	92.62
290.493	-331.38
290.625	-205.38
290.757	-162.38
290.888	-134.38
291.02	-18.38
291.152	-50.38
291.283	-19.38
291.415	-112.38
291.547	-274.38
291.678	-208.38
291.81	-30.38
291.942	265.62
292.073	-20.38
292.205	-281.38
292.337	64.62
292.468	445.62
292.6	-204.38
292.732	594.62
292.863	-210.38
292.995	-339.38
293.126	68.62
293.258	148.62
293.39	-260.38
293.521	-236.38
293.653	-321.38
293.785	77.62
293.916	-136.38
294.048	4.62
294.179	10.62
294.311	-240.38
294.442	30.62
294.574	-270.38
294.706	-129.38
294.837	85.62
294.969	-81.38
295.1	-210.38
295.232	-238.38
295.363	186.62
295.495	-196.38
295.627	-6.38
295.758	133.62
295.89	-342.38
296.021	51.62
296.153	29.62
296.284	-85.38
296.416	-116.38
296.547	-172.38
296.679	-62.38
296.81	-50.38
296.942	-364.38
297.073	-250.38
297.205	-291.38
297.336	-200.38
297.468	-238.38
297.599	-85.38
297.731	-338.38
297.862	-95.38
297.994	-325.38
298.125	-289.38
298.257	-134.38
298.388	-12.38
298.52	2.62
298.651	-98.38
298.782	273.62
298.914	-246.38
299.045	-163.38
299.177	-298.38
299.308	-287.38
299.44	6.62
299.571	-40.38
299.702	-154.38
299.834	-99.38
299.965	-131.38
300.097	-247.38
300.228	-42.38
300.36	-94.38
300.491	-126.38
300.622	16.62
300.754	-137.38
300.885	-195.38
301.017	-42.38
301.148	-177.38
301.279	-324.38
301.411	-8.38
301.542	-36.38
301.673	-69.38
301.805	-0.38
301.936	-242.38
302.067	-186.38
302.199	-182.38
302.33	-253.38
302.461	302.62
302.593	-16.38
302.724	-17.38
302.855	-303.38
302.987	-100.38
303.118	-287.38
303.249	-335.38
303.381	-178.38
303.512	-230.38
303.643	-202.38
303.775	122.62
303.906	-250.38
304.037	-253.38
304.169	-248.38
304.3	-151.38
304.431	-282.38
304.562	-202.38
304.694	-153.38
304.825	-33.38
304.956	88.62
305.087	-179.38
305.219	10.62
305.35	-71.38
305.481	-221.38
305.612	13.62
305.744	-6.38
305.875	-193.38
306.006	478.62
306.137	-219.38
306.269	-66.38
306.4	48.62
306.531	96.62
306.662	-137.38
306.794	113.62
306.925	-214.38
307.056	-268.38
307.187	-38.38
307.318	-160.38
307.45	-141.38
307.581	-230.38
307.712	-239.38
307.843	-82.38
307.974	-94.38
308.105	121.62
308.237	-53.38
308.368	-292.38
308.499	-137.38
308.63	20.62
308.761	-133.38
308.892	-105.38
309.024	-138.38
309.155	-165.38
309.286	-193.38
309.417	-255.38
309.548	-171.38
309.679	-151.38
309.81	-415.38
309.941	446.62
310.073	-38.38
310.204	-341.38
310.335	-20.38
310.466	-181.38
310.597	-271.38
310.728	-179.38
310.859	314.62
310.99	274.62
311.121	-108.38
311.252	-104.38
311.383	-266.38
311.514	-34.38
311.646	-159.38
311.777	-40.38
311.908	-39.38
312.039	-126.38
312.17	-318.38
312.301	-143.38
312.432	-238.38
312.563	-310.38
312.694	-58.38
312.825	-139.38
312.956	-233.38
313.087	14.62
313.218	41.62
313.349	-155.38
313.48	-362.38
313.611	-159.38
313.742	-118.38
313.873	22.62
314.004	-59.38
314.135	-184.38
314.266	-69.38
314.397	-161.38
314.528	-313.38
314.659	-269.38
314.79	-259.38
314.921	-1.38
315.052	25.62
315.183	-264.38
315.314	-321.38
315.445	41.62
315.576	-28.38
315.707	-142.38
315.838	-168.38
315.968	-35.38
316.099	-284.38
316.23	-328.38
316.361	80.62
316.492	-149.38
316.623	44.62
316.754	162.62
316.885	-356.38
317.016	-313.38
317.147	-355.38
317.278	90.62
317.408	-238.38
317.539	-287.38
317.67	-260.38
317.801	-21.38
317.932	-153.38
318.063	-203.38
318.194	-158.38
318.325	-16.38
318.455	-349.38
318.586	-153.38
318.717	-21.38
318.848	-313.38
318.979	107.62
319.11	254.62
319.24	31.62
319.371	43.62
319.502	-103.38
319.633	-218.38
319.764	-118.38
319.895	-260.38
320.025	-61.38
320.156	-306.38
320.287	-433.38
320.418	-241.38
320.549	-65.38
320.679	-329.38
320.81	128.62
320.941	-329.38
321.072	-310.38
321.202	-35.38
321.333	245.62
321.464	-400.38
321.595	-221.38
321.726	214.62
321.856	-347.38
321.987	-163.38
322.118	-246.38
322.249	0.62
322.379	-72.38
322.51	5.62
322.641	-64.38
322.771	-350.38
322.902	-91.38
323.033	-86.38
323.164	657.62
323.294	-205.38
323.425	-230.38
323.556	-187.38
323.686	-123.38
323.817	267.62
323.948	-23.38
324.078	-140.38
324.209	155.62
324.34	-187.38
324.47	223.62
324.601	-208.38
324.732	-85.38
324.862	-4.38
324.993	-240.38
325.124	-407.38
325.254	-74.38
325.385	-108.38
325.516	496.62
325.646	397.62
325.777	-167.38
325.908	-145.38
326.038	44.62
326.169	-130.38
326.299	-86.38
326.43	110.62
326.561	-124.38
326.691	-158.38
326.822	-259.38
326.952	-209.38
327.083	-78.38
327.214	-264.38
327.344	-88.38
327.475	-24.38
327.605	-64.38
327.736	-159.38
327.867	-318.38
327.997	-147.38
328.128	-67.38
328.258	-326.38
328.389	234.62
328.519	-271.38
328.65	26.62
328.78	-218.38
328.911	-30.38
329.041	62.62
329.172	-330.38
329.303	-224.38
329.433	-178.38
329.564	-296.38
329.694	-229.38
329.825	-225.38
329.955	-48.38
330.086	427.62
330.216	-156.38
330.347	-262.38
330.477	-158.38
330.608	-104.38
330.738	-123.38
330.868	-335.38
330.999	-147.38
331.129	139.62
331.26	-232.38
331.39	-177.38
331.521	167.62
331.651	11.62
331.782	-328.38
331.912	-277.38
332.043	-258.38
332.173	72.62
332.303	-312.38
332.434	122.62
332.564	-13.38
332.695	-214.38
332.825	-341.38
332.956	-229.38
333.086	-78.38
333.216	-249.38
333.347	-51.38
333.477	-405.38
333.608	-102.38
333.738	-11.38
333.868	-125.38
333.999	-80.38
334.129	84.62
334.259	-51.38
334.39	-205.38
334.52	65.62
334.65	-183.38
334.781	145.62
334.911	-210.38
335.042	-246.38
335.172	-41.38
335.302	-125.38
335.433	274.62
335.563	-267.38
335.693	-3.38
335.824	232.62
335.954	-383.38
336.084	-22.38
336.214	-42.38
336.345	314.62
336.475	24.62
336.605	-234.38
336.736	298.62
336.866	-93.38
336.996	-169.38
337.126	-291.38
337.257	-97.38
337.387	-352.38
337.517	-209.38
337.648	-340.38
337.778	127.62
337.908	94.62
338.038	7.62
338.169	-188.38
338.299	215.62
338.429	-31.38
338.559	-240.38
338.69	-176.38
338.82	379.62
338.95	-17.38
339.08	-424.38
339.21	-296.38
339.341	-93.38
339.471	18.62
339.601	-102.38
339.731	-57.38
339.861	-174.38
339.992	-130.38
340.122	-136.38
340.252	-216.38
340.382	-198.38
340.512	-59.38
340.642	173.62
340.773	-50.38
340.903	-299.38
341.033	-127.38
341.163	-47.38
341.293	121.62
341.423	-222.38
341.554	-313.38
341.684	-21.38
341.814	-137.38
341.944	-150.38
342.074	-93.38
342.204	-205.38
342.334	159.62
342.464	-272.38
342.595	-159.38
342.725	-290.38
342.855	-47.38
342.985	-155.38
343.115	-290.38
343.245	-395.38
343.375	-25.38
343.505	-111.38
343.635	1.62
343.765	-213.38
343.895	-388.38
344.025	3.62
344.155	-299.38
344.286	-186.38
344.416	-69.38
344.546	102.62
344.676	-89.38
344.806	153.62
344.936	-56.38
345.066	181.62
345.196	-263.38
345.326	-322.38
345.456	91.62
345.586	-238.38
345.716	-294.38
345.846	11.62
345.976	-371.38
346.106	-112.38
346.236	66.62
346.366	38.62
346.496	-196.38
346.626	-176.38
346.756	-223.38
346.886	-238.38
347.016	-346.38
347.146	-205.38
347.276	-250.38
347.406	-201.38
347.536	-77.38
347.666	110.62
347.795	-248.38
347.925	-152.38
348.055	112.62
348.185	-192.38
348.315	-154.38
348.445	109.62
348.575	-169.38
348.705	-248.38
348.835	-260.38
348.965	-181.38
349.095	3.62
349.225	258.62
349.354	-274.38
349.484	-175.38
349.614	-184.38
349.744	-272.38
349.874	-250.38
350.004	-350.38
350.134	-267.38
350.264	-344.38
350.393	-294.38
350.523	117.62
350.653	-303.38
350.783	16.62
350.913	172.62
351.043	-224.38
351.173	-202.38
351.302	-3.38
351.432	197.62
351.562	-94.38
351.692	-65.38
351.822	-203.38
351.951	-389.38
352.081	175.62
352.211	-104.38
352.341	159.62
352.471	106.62
352.6	-125.38
352.73	-204.38
352.86	-158.38
352.99	-34.38
353.12	-76.38
353.249	-14.38
353.379	-275.38
353.509	50.62
353.639	-299.38
353.768	-67.38
353.898	-207.38
354.028	-301.38
354.158	-190.38
354.287	-242.38
354.417	-315.38
354.547	-249.38
354.677	-376.38
354.806	-140.38
354.936	-15.38
355.066	-199.38
355.195	-32.38
355.325	-35.38
355.455	-264.38
355.584	175.62
355.714	-213.38
355.844	101.62
355.974	-33.38
356.103	-150.38
356.233	-163.38
356.363	21.62
356.492	-258.38
356.622	-316.38
356.752	-36.38
356.881	-351.38
357.011	32.62
357.14	107.62
357.27	-169.38
357.4	62.62
357.529	-156.38
357.659	129.62
357.789	44.62
357.918	-321.38
358.048	-321.38
358.177	-147.38
358.307	-254.38
358.437	-108.38
358.566	-242.38
358.696	52.62
358.825	129.62
358.955	-308.38
359.085	34.62
359.214	-418.38
359.344	-103.38
359.473	-291.38
359.603	-131.38
359.733	-213.38
359.862	-326.38
359.992	57.62
360.121	-176.38
360.251	-21.38
360.38	-350.38
360.51	69.62
360.639	-174.38
360.769	-100.38
360.898	69.62
361.028	50.62
361.157	-104.38
361.287	-33.38
361.416	-266.38
361.546	-141.38
361.675	-141.38
361.805	-176.38
361.934	43.62
362.064	-177.38
362.193	-179.38
362.323	-263.38
362.452	78.62
362.582	-234.38
362.711	-119.38
362.841	14.62
362.97	-9.38
363.1	-266.38
363.229	-332.38
363.359	-145.38
363.488	-228.38
363.617	-119.38
363.747	-87.38
363.876	-362.38
364.006	-47.38
364.135	-104.38
364.265	-154.38
364.394	-184.38
364.523	273.62
364.653	-255.38
364.782	-16.38
364.912	-246.38
365.041	-295.38
365.17	-259.38
365.3	-44.38
365.429	181.62
365.558	-153.38
365.688	-240.38
365.817	-281.38
365.947	-60.38
366.076	-72.38
366.205	-72.38
366.335	-371.38
366.464	-249.38
366.593	73.62
366.723	-152.38
366.852	-159.38
366.981	-105.38
367.111	-276.38
367.24	-186.38
367.369	-158.38
367.499	493.62
367.628	146.62
367.757	-150.38
367.886	-66.38
368.016	82.62
368.145	-121.38
368.274	-43.38
368.404	-309.38
368.533	-78.38
368.662	5.62
368.791	-216.38
368.921	-396.38
369.05	132.62
369.179	-52.38
369.308	294.62
369.438	-323.38
369.567	-362.38
369.696	-125.38
369.825	-29.38
369.955	-172.38
370.084	-22.38
370.213	-120.38
370.342	-303.38
370.472	-300.38
370.601	392.62
370.73	25.62
370.859	-401.38
370.988	-165.38
371.118	-302.38
371.247	19.62
371.376	98.62
371.505	-79.38
371.634	-48.38
371.763	-129.38
371.893	-260.38
372.022	-187.38
372.151	-277.38
372.28	-333.38
372.409	-400.38
372.538	-190.38
372.667	-81.38
372.797	83.62
372.926	-344.38
373.055	-54.38
373.184	-131.38
373.313	-261.38
373.442	-33.38
373.571	-226.38
373.7	-134.38
373.83	-63.38
373.959	-404.38
374.088	-159.38
374.217	128.62
374.346	-189.38
374.475	-366.38
374.604	-222.38
374.733	270.62
374.862	-152.38
374.991	-248.38
375.12	-44.38
375.249	-38.38
375.378	-265.38
375.508	-349.38
375.637	-298.38
375.766	46.62
375.895	-197.38
376.024	141.62
376.153	-281.38
376.282	-138.38
376.411	-217.38
376.54	-446.38
376.669	-61.38
376.798	-169.38
376.927	-295.38
377.056	105.62
377.185	-96.38
377.314	111.62
377.443	243.62
377.572	-286.38
377.701	-287.38
377.83	155.62
377.959	17.62
378.088	1694.62
378.217	109.62
378.346	-213.38
378.474	-381.38
378.603	-265.38
378.732	-57.38
378.861	-194.38
378.99	-262.38
379.119	-394.38
379.248	-69.38
379.377	-150.38
379.506	-181.38
379.635	115.62
379.764	-83.38
379.893	-267.38
380.022	-326.38
380.15	-109.38
380.279	-326.38
380.408	-271.38
380.537	-139.38
380.666	-41.38
380.795	-39.38
380.924	-169.38
381.053	-266.38
381.181	-65.38
381.31	737.62
381.439	-258.38
381.568	-185.38
381.697	-197.38
381.826	-145.38
381.955	-276.38
382.083	-113.38
382.212	-325.38
382.341	18.62
382.47	-248.38
382.599	-166.38
382.727	244.62
382.856	-59.38
382.985	-17.38
383.114	-174.38
383.243	-250.38
383.371	-105.38
383.5	-242.38
383.629	-297.38
383.758	-246.38
383.887	-428.38
384.015	-29.38
384.144	-280.38
384.273	-115.38
384.402	-4.38
384.53	-275.38
384.659	-272.38
384.788	-303.38
384.917	-245.38
385.045	-120.38
385.174	-171.38
385.303	-402.38
385.432	17.62
385.56	-123.38
385.689	-163.38
385.818	-54.38
385.946	-28.38
386.075	-241.38
386.204	-297.38
386.332	-133.38
386.461	37.62
386.59	25.62
386.718	-326.38
386.847	-189.38
386.976	-196.38
387.104	-387.38
387.233	-323.38
387.362	-84.38
387.49	-85.38
387.619	-305.38
387.748	-170.38
387.876	128.62
388.005	-125.38
388.134	93.62
388.262	-322.38
388.391	-220.38
388.52	-7.38
388.648	-294.38
388.777	43.62
388.905	-264.38
389.034	-151.38
389.163	-292.38
389.291	-135.38
389.42	34.62
389.548	97.62
389.677	-115.38
389.805	-111.38
389.934	-35.38
390.063	-305.38
390.191	-365.38
390.32	-228.38
390.448	-163.38
390.577	-288.38
390.705	-319.38
390.834	-146.38
390.962	-327.38
391.091	-267.38
391.22	106.62
391.348	144.62
391.477	-62.38
391.605	-328.38
391.734	-220.38
391.862	-227.38
391.991	-311.38
392.119	-284.38
392.248	-176.38
392.376	-120.38
392.505	-148.38
392.633	-222.38
392.762	292.62
392.89	-305.38
393.018	32.62
393.147	-170.38
393.275	-340.38
393.404	-300.38
393.532	-222.38
393.661	-105.38
393.789	-79.38
393.918	-123.38
394.046	-159.38
394.174	-137.38
394.303	-358.38
394.431	-225.38
394.56	28.62
394.688	-352.38
394.817	-389.38
394.945	61.62
395.073	45.62
395.202	-99.38
395.33	-167.38
395.459	-125.38
395.587	63.62
395.715	70.62
395.844	-93.38
395.972	-422.38
396.1	115.62
396.229	-292.38
396.357	-71.38
396.485	-232.38
396.614	-263.38
396.742	59.62
396.87	-117.38
396.999	-12.38
397.127	-301.38
397.255	-40.38
397.384	75.62
397.512	-351.38
397.64	-284.38
397.769	-149.38
397.897	-34.38
398.025	-149.38
398.154	-80.38
398.282	169.62
398.41	-86.38
398.538	-94.38
398.667	-213.38
398.795	-232.38
398.923	36.62
399.052	-223.38
399.18	-199.38
399.308	-142.38
399.436	168.62
399.565	-306.38
399.693	-80.38
399.821	-154.38
399.949	-199.38
400.078	291.62
400.206	-303.38
400.334	-319.38
400.462	-183.38
400.59	-334.38
400.719	-223.38
400.847	-282.38
400.975	-45.38
401.103	-253.38
401.231	-89.38
401.36	-134.38
401.488	-41.38
401.616	-193.38
401.744	-170.38
401.872	-243.38
402	-5.38
402.129	-203.38
402.257	-279.38
402.385	-190.38
402.513	-141.38
402.641	-197.38
402.769	-182.38
402.897	-267.38
403.026	-341.38
403.154	-361.38
403.282	-307.38
403.41	-195.38
403.538	122.62
403.666	-358.38
403.794	-167.38
403.922	-112.38
404.05	-85.38
404.179	-128.38
404.307	-109.38
404.435	-255.38
404.563	-326.38
404.691	-363.38
404.819	425.62
404.947	-316.38
405.075	-249.38
405.203	-329.38
405.331	-235.38
405.459	-299.38
405.587	-101.38
405.715	-230.38
405.843	-227.38
405.971	-97.38
406.099	114.62
406.227	-23.38
406.355	-179.38
406.483	-364.38
406.611	-45.38
406.739	-301.38
406.867	-325.38
406.995	-225.38
407.123	-200.38
407.251	-374.38
407.379	-318.38
407.507	-62.38
407.635	-178.38
407.763	-435.38
407.891	-423.38
408.019	-11.38
408.147	-3.38
408.275	188.62
408.403	-324.38
408.531	-374.38
408.659	191.62
408.787	-102.38
408.915	-236.38
409.043	-255.38
409.171	33.62
409.299	26.62
409.427	56.62
409.554	-370.38
409.682	285.62
409.81	-122.38
409.938	-201.38
410.066	21.62
410.194	-63.38
410.322	-312.38
410.45	-201.38
410.578	-369.38
410.705	-286.38
410.833	-115.38
410.961	55.62
411.089	307.62
411.217	-166.38
411.345	-156.38
411.473	-257.38
411.6	-63.38
411.728	-196.38
411.856	-337.38
411.984	-325.38
412.112	-97.38
412.239	-76.38
412.367	-193.38
412.495	74.62
412.623	-262.38
412.751	27.62
412.878	-390.38
413.006	-187.38
413.134	69.62
413.262	180.62
413.39	-27.38
413.517	-70.38
413.645	36.62
413.773	-353.38
413.901	167.62
414.028	-165.38
414.156	-120.38
414.284	-284.38
414.412	70.62
414.539	-226.38
414.667	-234.38
414.795	-239.38
414.923	-400.38
415.05	-174.38
415.178	-28.38
415.306	308.62
415.433	-251.38
415.561	47.62
415.689	60.62
415.816	-236.38
415.944	197.62
416.072	-316.38
416.2	6.62
416.327	247.62
416.455	-276.38
416.583	-207.38
416.71	-242.38
416.838	126.62
416.966	-337.38
417.093	-211.38
417.221	50.62
417.348	-41.38
417.476	-338.38
417.604	-205.38
417.731	-148.38
417.859	50.62
417.987	-96.38
418.114	-280.38
418.242	22.62
418.369	-247.38
418.497	-331.38
418.625	130.62
418.752	-133.38
418.88	-279.38
419.007	158.62
419.135	-78.38
419.263	-203.38
419.39	22.62
419.518	78.62
419.645	-2.38
419.773	627.62
419.9	1727.62
420.028	4189.62
420.155	5016.62
420.283	7009.62
420.41	8023.62
420.538	8788.62
420.666	9476.62
420.793	9615.62
420.921	8791.62
421.048	6897.62
421.176	4687.62
421.303	2382.62
421.431	649.62
421.558	-103.38
421.686	221.62
421.813	22.62
421.941	-205.38
422.068	-53.38
422.195	89.62
422.323	59.62
422.45	-388.38
422.578	-90.38
422.705	-235.38
422.833	-179.38
422.96	-257.38
423.088	-23.38
423.215	321.62
423.343	318.62
423.47	-86.38
423.597	210.62
423.725	-121.38
423.852	-133.38
423.98	-60.38
424.107	-377.38
424.234	-151.38
424.362	-237.38
424.489	-249.38
424.617	542.62
424.744	26.62
424.871	-342.38
424.999	-137.38
425.126	92.62
425.253	-58.38
425.381	-222.38
425.508	-295.38
425.636	6.62
425.763	-209.38
425.89	-210.38
426.018	-347.38
426.145	-149.38
426.272	-82.38
426.4	11.62
426.527	74.62
426.654	-308.38
426.781	-74.38
426.909	-90.38
427.036	-109.38
427.163	-375.38
427.291	-276.38
427.418	-186.38
427.545	-105.38
427.673	-331.38
427.8	-372.38
427.927	-308.38
428.054	-91.38
428.182	-197.38
428.309	-199.38
428.436	-245.38
428.563	-293.38
428.691	-89.38
428.818	-239.38
428.945	16.62
429.072	-326.38
429.2	-101.38
429.327	-68.38
429.454	42.62
429.581	-147.38
429.708	-418.38
429.836	-270.38
429.963	-217.38
430.09	-265.38
430.217	-244.38
430.344	-305.38
430.472	-307.38
430.599	-22.38
430.726	-228.38
430.853	-149.38
430.98	-13.38
431.107	-280.38
431.235	-127.38
431.362	-71.38
431.489	-147.38
431.616	223.62
431.743	105.62
431.87	-348.38
431.997	-187.38
432.125	-107.38
432.252	-438.38
432.379	-207.38
432.506	-42.38
432.633	-247.38
432.76	-123.38
432.887	94.62
433.014	-208.38
433.141	-292.38
433.268	-61.38
433.395	-285.38
433.523	-185.38
433.65	-190.38
433.777	-230.38
433.904	-201.38
434.031	-379.38
434.158	-97.38
434.285	-5.38
434.412	-370.38
434.539	-165.38
434.666	-278.38
434.793	-282.38
434.92	-315.38
435.047	-11.38
435.174	-167.38
435.301	-19.38
435.428	231.62
435.555	153.62
435.682	-91.38
435.809	-305.38
435.936	107.62
436.063	-275.38
436.19	120.62
436.317	-267.38
436.444	24.62
436.571	-259.38
436.698	-25.38
436.825	60.62
436.952	-24.38
437.079	-82.38
437.206	-28.38
437.333	-313.38
437.46	-200.38
437.587	-152.38
437.714	-307.38
437.84	-163.38
437.967	-378.38
438.094	-362.38
438.221	50.62
438.348	-182.38
438.475	7960.62
438.602	-309.38
438.729	-437.38
438.856	-266.38
438.983	-291.38
439.109	-41.38
439.236	36.62
439.363	-404.38
439.49	-242.38
439.617	-142.38
439.744	-275.38
439.871	445.62
439.997	-249.38
440.124	-99.38
440.251	-92.38
440.378	-226.38
440.505	-202.38
440.632	55.62
440.758	138.62
440.885	226.62
441.012	-271.38
441.139	33.62
441.266	-340.38
441.392	-253.38
441.519	-302.38
441.646	-362.38
441.773	-65.38
441.9	228.62
442.026	-208.38
442.153	-129.38
442.28	-77.38
442.407	-272.38
442.533	23.62
442.66	-27.38
442.787	-106.38
442.914	-301.38
443.04	-215.38
443.167	-163.38
443.294	-143.38
443.421	-107.38
443.547	-344.38
443.674	-163.38
443.801	-64.38
443.927	64.62
444.054	379.62
444.181	65.62
444.307	56.62
444.434	-73.38
444.561	-327.38
444.688	-347.38
444.814	36.62
444.941	-211.38
445.068	-317.38
445.194	220.62
445.321	-269.38
445.447	172.62
445.574	-366.38
445.701	-348.38
445.827	-180.38
445.954	-428.38
446.081	-30.38
446.207	-307.38
446.334	-147.38
446.461	-199.38
446.587	-409.38
446.714	-17.38
446.84	71.62
446.967	-275.38
447.094	-211.38
447.22	84.62
447.347	-178.38
447.473	-273.38
447.6	-86.38
447.726	-387.38
447.853	-124.38
447.98	-149.38
448.106	-64.38
448.233	-120.38
448.359	-263.38
448.486	-68.38
448.612	-256.38
448.739	-55.38
448.865	45.62
448.992	225.62
449.118	-225.38
449.245	-309.38
449.371	-303.38
449.498	-114.38
449.624	-36.38
449.751	-115.38
449.877	-282.38
450.004	-117.38
450.13	-120.38
450.257	-271.38
450.383	-162.38
450.51	-381.38
450.636	-269.38
450.763	-207.38
450.889	-231.38
451.016	-450.38
451.142	-87.38
451.269	-285.38
451.395	247.62
451.521	-182.38
451.648	-259.38
451.774	-116.38
451.901	-402.38
452.027	-179.38
452.154	52.62
452.28	-194.38
452.406	-254.38
452.533	-247.38
452.659	-345.38
452.785	-202.38
452.912	-317.38
453.038	-330.38
453.165	-52.38
453.291	122.62
453.417	151.62
453.544	-312.38
453.67	-226.38
453.796	80.62
453.923	-327.38
454.049	-225.38
454.175	-262.38
454.302	-220.38
454.428	-44.38
454.554	-109.38
454.681	-295.38
454.807	-287.38
454.933	289.62
455.06	-92.38
455.186	-182.38
455.312	99.62
455.439	25.62
455.565	-324.38
455.691	-328.38
455.817	-3.38
455.944	54.62
456.07	-171.38
456.196	-30.38
456.322	-386.38
456.449	-369.38
456.575	-148.38
456.701	-260.38
456.827	-283.38
456.954	-350.38
457.08	-302.38
457.206	-435.38
457.332	-184.38
457.459	-365.38
457.585	-303.38
457.711	-270.38
457.837	-26.38
457.963	-103.38
458.09	-286.38
458.216	-315.38
458.342	-196.38
458.468	-194.38
458.594	-168.38
458.721	-141.38
458.847	-102.38
458.973	-353.38
459.099	-213.38
459.225	-242.38
459.351	-208.38
459.477	-68.38
459.604	-321.38
459.73	-249.38
459.856	-305.38
459.982	-120.38
460.108	-438.38
460.234	-439.38
460.36	-222.38
460.486	-34.38
460.613	-302.38
460.739	54.62
460.865	-237.38
460.991	218.62
461.117	155.62
461.243	-292.38
461.369	-337.38
461.495	-234.38
461.621	-172.38
461.747	-92.38
461.873	-31.38
461.999	-275.38
462.125	-183.38
462.252	35.62
462.378	-131.38
462.504	-22.38
462.63	-116.38
462.756	-360.38
462.882	-231.38
463.008	-217.38
463.134	93.62
463.26	-357.38
463.386	-218.38
463.512	-103.38
463.638	-255.38
463.764	-324.38
463.89	-186.38
464.016	53.62
464.142	-80.38
464.268	-306.38
464.394	-209.38
464.52	-348.38
464.645	-88.38
464.771	31.62
464.897	-255.38
465.023	-261.38
465.149	-116.38
465.275	-357.38
465.401	-309.38
465.527	94.62
465.653	-126.38
465.779	71.62
465.905	-326.38
466.031	-112.38
466.157	-286.38
466.282	-223.38
466.408	-268.38
466.534	-127.38
466.66	-432.38
466.786	-195.38
466.912	-123.38
467.038	-165.38
467.164	-205.38
467.289	-229.38
467.415	-176.38
467.541	-166.38
467.667	-190.38
467.793	-217.38
467.919	-95.38
468.045	164.62
468.17	-287.38
468.296	-168.38
468.422	-201.38
468.548	37.62
468.674	-393.38
468.799	-291.38
468.925	-254.38
469.051	-332.38
469.177	-378.38
469.303	-417.38
469.428	2.62
469.554	-269.38
469.68	-289.38
469.806	-74.38
469.931	-166.38
470.057	378.62
470.183	-487.38
470.309	-262.38
470.434	132.62
470.56	-167.38
470.686	-103.38
470.812	-147.38
470.937	-309.38
471.063	-266.38
471.189	-84.38
471.315	27.62
471.44	-145.38
471.566	-198.38
471.692	58.62
471.817	-270.38
471.943	-152.38
472.069	-49.38
472.194	-170.38
472.32	-276.38
472.446	-11.38
472.571	-300.38
472.697	-236.38
472.823	-151.38
472.948	-336.38
473.074	-116.38
473.2	-178.38
473.325	-331.38
473.451	-223.38
473.577	-182.38
473.702	-413.38
473.828	-220.38
473.953	-367.38
474.079	-113.38
474.205	-349.38
474.33	-349.38
474.456	-236.38
474.581	181.62
474.707	-265.38
474.833	-245.38
474.958	-64.38
475.084	-6.38
475.209	-245.38
475.335	-300.38
475.46	-110.38
475.586	-217.38
475.712	-58.38
475.837	-219.38
475.963	-218.38
476.088	-385.38
476.214	-278.38
476.339	-244.38
476.465	-263.38
476.59	-369.38
476.716	78.62
476.841	-331.38
476.967	229.62
477.092	-206.38
477.218	-103.38
477.343	-298.38
477.469	196.62
477.594	-235.38
477.72	-333.38
477.845	-109.38
477.971	-222.38
478.096	-109.38
478.222	-221.38
478.347	3278.62
478.472	25.62
478.598	-282.38
478.723	-251.38
478.849	-16.38
478.974	-80.38
479.1	-301.38
479.225	-132.38
479.35	-262.38
479.476	-41.38
479.601	-307.38
479.727	82.62
479.852	-294.38
479.977	-178.38
480.103	-176.38
480.228	136.62
480.354	-195.38
480.479	88.62
480.604	-241.38
480.73	-273.38
480.855	-433.38
480.98	30.62
481.106	-346.38
481.231	-404.38
481.356	-296.38
481.482	-442.38
481.607	-350.38
481.732	-481.38
481.858	-208.38
481.983	-310.38
482.108	-271.38
482.234	-390.38
482.359	-266.38
482.484	109.62
482.61	-285.38
482.735	-151.38
482.86	-393.38
482.985	-224.38
483.111	-174.38
483.236	-93.38
483.361	-220.38
483.486	-307.38
483.612	15.62
483.737	-411.38
483.862	-147.38
483.987	-67.38
484.113	-384.38
484.238	-53.38
484.363	-360.38
484.488	-238.38
484.614	-17.38
484.739	-202.38
484.864	52.62
484.989	429.62
485.114	-97.38
485.24	-210.38
485.365	-244.38
485.49	-424.38
485.615	8.62
485.74	-210.38
485.865	-101.38
485.991	-145.38
486.116	-82.38
486.241	-394.38
486.366	-343.38
486.491	-40.38
486.616	-275.38
486.742	-227.38
486.867	-179.38
486.992	-369.38
487.117	-297.38
487.242	-291.38
487.367	-460.38
487.492	-225.38
487.617	-9.38
487.742	-135.38
487.868	-313.38
487.993	-79.38
488.118	-94.38
488.243	-120.38
488.368	-287.38
488.493	-419.38
488.618	-245.38
488.743	-218.38
488.868	-302.38
488.993	-217.38
489.118	14.62
489.243	-153.38
489.368	-277.38
489.493	8.62
489.618	-166.38
489.743	-318.38
489.868	-169.38
489.993	-242.38
490.118	-419.38
490.243	389.62
490.368	-251.38
490.493	-42.38
490.618	-0.38
490.743	-434.38
490.868	-146.38
490.993	-130.38
491.118	-6.38
491.243	-318.38
491.368	-147.38
491.493	7.62
491.618	-167.38
491.743	-227.38
491.868	-258.38
491.993	-244.38
492.118	-288.38
492.243	-151.38
492.368	-92.38
492.493	-269.38
492.618	126.62
492.743	-227.38
492.867	22.62
492.992	-159.38
493.117	6.62
493.242	-270.38
493.367	-165.38
493.492	21.62
493.617	-275.38
493.742	88.62
493.867	-227.38
493.991	-378.38
494.116	-160.38
494.241	-161.38
494.366	-225.38
494.491	-69.38
494.616	48.62
494.74	-294.38
494.865	-382.38
494.99	-254.38
495.115	-212.38
495.24	-148.38
495.365	-263.38
495.489	-225.38
495.614	-107.38
495.739	-203.38
495.864	-260.38
495.989	-389.38
496.113	-15.38
496.238	-92.38
496.363	-254.38
496.488	-350.38
496.612	0.62
496.737	-271.38
496.862	-216.38
496.987	-255.38
497.111	-315.38
497.236	-324.38
497.361	-299.38
497.486	61.62
497.61	-13.38
497.735	-211.38
497.86	-75.38
497.984	-59.38
498.109	-413.38
498.234	-285.38
498.359	-257.38
498.483	-168.38
498.608	-184.38
498.733	-258.38
498.857	-329.38
498.982	-182.38
499.107	-381.38
499.231	-167.38
499.356	-235.38
499.481	78.62
499.605	-498.38
499.73	-361.38
499.855	36.62
499.979	-308.38
500.104	-203.38
500.228	129.62
500.353	-228.38
500.478	-350.38
500.602	-123.38
500.727	69.62
500.852	-80.38
500.976	-410.38
501.101	-249.38
501.225	150.62
501.35	-293.38
501.474	-325.38
501.599	-34.38
501.724	-245.38
501.848	-202.38
501.973	94.62
502.097	-375.38
502.222	-415.38
502.346	-42.38
502.471	-125.38
502.595	-271.38
502.72	-359.38
502.844	-329.38
502.969	-208.38
503.094	125.62
503.218	-386.38
503.343	-276.38
503.467	-338.38
503.592	-237.38
503.716	-238.38
503.841	-142.38
503.965	203.62
504.089	-210.38
504.214	-333.38
504.338	-237.38
504.463	22.62
504.587	-98.38
504.712	-146.38
504.836	-180.38
504.961	259.62
505.085	99.62
505.21	-302.38
505.334	-269.38
505.458	200.62
505.583	-353.38
505.707	-82.38
505.832	-254.38
505.956	-160.38
506.08	-297.38
506.205	-247.38
506.329	120.62
506.454	-376.38
506.578	-163.38
506.702	-295.38
506.827	119.62
506.951	-64.38
507.076	-169.38
507.2	-351.38
507.324	-56.38
507.449	73.62
507.573	-201.38
507.697	-257.38
507.822	-178.38
507.946	-213.38
508.07	-409.38
508.195	-214.38
508.319	-217.38
508.443	-139.38
508.567	-436.38
508.692	-367.38
508.816	-321.38
508.94	-214.38
509.065	-420.38
509.189	-67.38
509.313	-90.38
509.437	24.62
509.562	-245.38
509.686	-150.38
509.81	-236.38
509.935	-88.38
510.059	60.62
510.183	-322.38
510.307	-388.38
510.431	6.62
510.556	-175.38
510.68	-276.38
510.804	-426.38
510.928	-174.38
511.053	-386.38
511.177	-388.38
511.301	-167.38
511.425	-252.38
511.549	-150.38
511.674	-158.38
511.798	-174.38
511.922	-84.38
512.046	153.62
512.17	-210.38
512.294	-360.38
512.419	-114.38
512.543	-80.38
512.667	-195.38
512.791	-278.38
512.915	-93.38
513.039	-216.38
513.163	-69.38
513.288	100.62
513.412	-242.38
513.536	28.62
513.66	-296.38
513.784	-217.38
513.908	-105.38
514.032	-147.38
514.156	-10.38
514.28	-34.38
514.404	-185.38
514.528	-213.38
514.653	-33.38
514.777	3.62
514.901	-75.38
515.025	109.62
515.149	-235.38
515.273	-128.38
515.397	-221.38
515.521	-170.38
515.645	-200.38
515.769	-313.38
515.893	-265.38
516.017	-280.38
516.141	-403.38
516.265	-244.38
516.389	-280.38
516.513	-183.38
516.637	-285.38
516.761	-468.38
516.885	-294.38
517.009	-199.38
517.133	-95.38
517.257	-241.38
517.381	-40.38
517.505	6.62
517.629	44.62
517.753	-215.38
517.877	-337.38
518.001	-235.38
518.125	-202.38
518.248	-39.38
518.372	-163.38
518.496	-350.38
518.62	-113.38
518.744	-187.38
518.868	-112.38
518.992	-142.38
519.116	-324.38
519.24	430.62
519.364	24.62
519.488	-171.38
519.611	-413.38
519.735	-205.38
519.859	-196.38
519.983	-21.38
520.107	-247.38
520.231	-0.38
520.355	-167.38
520.478	-288.38
520.602	-317.38
520.726	98.62
520.85	-195.38
520.974	-8.38
521.098	-286.38
521.221	-327.38
521.345	37.62
521.469	-287.38
521.593	-208.38
521.717	34.62
521.84	-202.38
521.964	-288.38
522.088	-251.38
522.212	-238.38
522.335	-402.38
522.459	-301.38
522.583	193.62
522.707	-357.38
522.83	-430.38
522.954	-321.38
523.078	-260.38
523.202	-21.38
523.325	-255.38
523.449	-196.38
523.573	-168.38
523.697	-313.38
523.82	-184.38
523.944	-214.38
524.068	-203.38
524.191	-216.38
524.315	-411.38
524.439	-165.38
524.562	-47.38
524.686	-271.38
524.81	-326.38
524.933	-250.38
525.057	-263.38
525.181	-117.38
525.304	-383.38
525.428	84.62
525.552	-394.38
525.675	-149.38
525.799	-272.38
525.923	-129.38
526.046	-57.38
526.17	-436.38
526.293	-352.38
526.417	-142.38
526.541	13.62
526.664	-250.38
526.788	-219.38
526.911	-67.38
527.035	-356.38
527.159	-244.38
527.282	-277.38
527.406	-295.38
527.529	-72.38
527.653	-369.38
527.776	-132.38
527.9	-261.38
528.024	-278.38
528.147	-252.38
528.271	34.62
528.394	17.62
528.518	36.62
528.641	-375.38
528.765	-124.38
528.888	-169.38
529.012	-113.38
529.135	-251.38
529.259	74.62
529.382	-222.38
529.506	-330.38
529.629	-115.38
529.753	-377.38
529.876	130.62
530	31.62
530.123	-140.38
530.247	-307.38
530.37	-266.38
530.493	-177.38
530.617	-305.38
530.74	12.62
530.864	-50.38
530.987	-383.38
531.111	-109.38
531.234	-325.38
531.357	27.62
531.481	-12.38
531.604	7.62
531.728	-394.38
531.851	-110.38
531.974	-123.38
532.098	-210.38
532.221	-296.38
532.345	-192.38
532.468	-376.38
532.591	150.62
532.715	-212.38
532.838	-274.38
532.961	-197.38
533.085	-304.38
533.208	-128.38
533.331	-396.38
533.455	-0.38
533.578	-228.38
533.701	-108.38
533.825	32.62
533.948	-256.38
534.071	-245.38
534.195	-56.38
534.318	-311.38
534.441	-276.38
534.564	-57.38
534.688	-265.38
534.811	-29.38
534.934	-203.38
535.058	-125.38
535.181	61.62
535.304	-45.38
535.427	-296.38
535.551	-385.38
535.674	-213.38
535.797	-48.38
535.92	-36.38
536.043	-365.38
536.167	-342.38
536.29	-92.38
536.413	-131.38
536.536	-312.38
536.66	-280.38
536.783	-133.38
536.906	-176.38
537.029	-240.38
537.152	-247.38
537.275	-190.38
537.399	106.62
537.522	-436.38
537.645	-211.38
537.768	-214.38
537.891	-118.38
538.014	-186.38
538.138	-298.38
538.261	-249.38
538.384	-172.38
538.507	-355.38
538.63	-254.38
538.753	133.62
538.876	-96.38
538.999	-309.38
539.123	-105.38
539.246	195.62
539.369	230.62
539.492	-290.38
539.615	-340.38
539.738	158.62
539.861	-258.38
539.984	-171.38
540.107	-116.38
540.23	-274.38
540.353	-313.38
540.476	-462.38
540.599	-65.38
540.722	-308.38
540.846	-148.38
540.969	-417.38
541.092	-132.38
541.215	-344.38
541.338	-138.38
541.461	-346.38
541.584	-170.38
541.707	-161.38
541.83	-294.38
541.953	-170.38
542.076	-110.38
542.199	-151.38
542.322	64.62
542.445	126.62
542.567	-250.38
542.69	-100.38
542.813	-243.38
542.936	-53.38
543.059	-174.38
543.182	240.62
543.305	43.62
543.428	-131.38
543.551	-214.38
543.674	99.62
543.797	-51.38
543.92	-228.38
544.043	262.62
544.166	-310.38
544.288	-214.38
544.411	-110.38
544.534	-302.38
544.657	-144.38
544.78	-235.38
544.903	-67.38
545.026	-191.38
545.149	-343.38
545.271	-359.38
545.394	-263.38
545.517	-364.38
545.64	356.62
545.763	-222.38
545.886	-297.38
546.008	-137.38
546.131	-17.38
546.254	-192.38
546.377	-394.38
546.5	-41.38
546.623	-41.38
546.745	-332.38
546.868	-217.38
546.991	-11.38
547.114	-167.38
547.236	-200.38
547.359	-299.38
547.482	-109.38
547.605	-281.38
547.728	-241.38
547.85	-345.38
547.973	-297.38
548.096	-218.38
548.219	-103.38
548.341	-201.38
548.464	-353.38
548.587	-153.38
548.709	-238.38
548.832	-150.38
548.955	252.62
549.078	6.62
549.2	-302.38
549.323	-239.38
549.446	167.62
549.568	-158.38
549.691	-56.38
549.814	-54.38
549.936	-271.38
550.059	-214.38
550.182	-337.38
550.304	-415.38
550.427	-165.38
550.55	-282.38
550.672	-302.38
550.795	250.62
550.917	-297.38
551.04	-190.38
551.163	-103.38
551.285	37.62
551.408	13.62
551.531	353.62
551.653	-354.38
551.776	-102.38
551.898	-54.38
552.021	-123.38
552.143	-228.38
552.266	-172.38
552.389	-170.38
552.511	-365.38
552.634	-363.38
552.756	-326.38
552.879	236.62
553.001	18.62
553.124	-404.38
553.246	-282.38
553.369	56.62
553.492	-158.38
553.614	14.62
553.737	-479.38
553.859	-38.38
553.982	-5.38
554.104	-141.38
554.227	-316.38
554.349	-213.38
554.472	-177.38
554.594	-452.38
554.716	0.62
554.839	-22.38
554.961	-105.38
555.084	-322.38
555.206	-162.38
555.329	-377.38
555.451	-353.38
555.574	-90.38
555.696	-319.38
555.819	-165.38
555.941	-150.38
556.063	-57.38
556.186	-208.38
556.308	-130.38
556.431	207.62
556.553	-28.38
556.675	-291.38
556.798	-213.38
556.92	-1.38
557.043	-291.38
557.165	-375.38
557.287	35.62
557.41	-187.38
557.532	-167.38
557.654	-230.38
557.777	20.62
557.899	-161.38
558.021	-228.38
558.144	42.62
558.266	44.62
558.388	222.62
558.511	-238.38
558.633	-167.38
558.755	-282.38
558.878	-302.38
559	-34.38
559.122	-409.38
559.244	-261.38
559.367	-167.38
559.489	-1.38
559.611	115.62
559.734	-188.38
559.856	-146.38
559.978	-127.38
560.1	-203.38
560.223	-166.38
560.345	70.62
560.467	-372.38
560.589	-188.38
560.712	-220.38
560.834	191.62
560.956	-336.38
561.078	-211.38
561.2	-109.38
561.323	74.62
561.445	-380.38
561.567	-257.38
561.689	-325.38
561.811	-51.38
561.934	-221.38
562.056	-189.38
562.178	-73.38
562.3	-231.38
562.422	-94.38
562.544	-163.38
562.666	38.62
562.789	-116.38
562.911	-160.38
563.033	-29.38
563.155	-50.38
563.277	-232.38
563.399	-431.38
563.521	-257.38
563.643	-290.38
563.766	-156.38
563.888	20.62
564.01	-149.38
564.132	-339.38
564.254	-357.38
564.376	36.62
564.498	-124.38
564.62	129.62
564.742	-154.38
564.864	-416.38
564.986	-126.38
565.108	246.62
565.23	-265.38
565.352	-45.38
565.474	-89.38
565.597	136.62
565.719	106.62
565.841	-355.38
565.963	-119.38
566.085	-101.38
566.207	-165.38
566.329	27.62
566.451	18.62
566.573	-235.38
566.695	-160.38
566.817	175.62
566.938	-335.38
567.06	-192.38
567.182	-120.38
567.304	-188.38
567.426	-369.38
567.548	-4.38
567.67	-82.38
567.792	-174.38
567.914	-286.38
568.036	-161.38
568.158	-148.38
568.28	-348.38
568.402	-70.38
568.524	-185.38
568.646	-301.38
568.767	-263.38
568.889	9.62
569.011	-194.38
569.133	-265.38
569.255	-388.38
569.377	-332.38
569.499	-133.38
569.621	-232.38
569.742	203.62
569.864	18.62
569.986	292.62
570.108	-46.38
570.23	-333.38
570.352	84.62
570.473	-123.38
570.595	-178.38
570.717	-329.38
570.839	-154.38
570.961	-28.38
571.082	-199.38
571.204	-313.38
571.326	-300.38
571.448	-20.38
571.57	32.62
571.691	-148.38
571.813	-114.38
571.935	32.62
572.057	-136.38
572.178	-335.38
572.3	80.62
572.422	123.62
572.544	196.62
572.665	-256.38
572.787	-318.38
572.909	135.62
573.031	-34.38
573.152	-348.38
573.274	-25.38
573.396	-31.38
573.517	-29.38
573.639	-425.38
573.761	-313.38
573.882	-149.38
574.004	-25.38
574.126	-323.38
574.247	-11.38
574.369	-22.38
574.491	-143.38
574.612	-319.38
574.734	-221.38
574.856	-141.38
574.977	-16.38
575.099	-139.38
575.221	-139.38
575.342	-179.38
575.464	-113.38
575.585	-74.38
575.707	-295.38
575.829	108.62
575.95	46.62
576.072	-230.38
576.193	-295.38
576.315	-208.38
576.437	-161.38
576.558	-181.38
576.68	-190.38
576.801	226.62
576.923	-305.38
577.044	62.62
577.166	-400.38
577.287	-150.38
577.409	-207.38
577.531	-196.38
577.652	-56.38
577.774	-378.38
577.895	-157.38
578.017	-303.38
578.138	-249.38
578.26	-167.38
578.381	-54.38
578.503	-252.38
578.624	-268.38
578.746	-358.38
578.867	-210.38
578.988	-115.38
579.11	107.62
579.231	-71.38
579.353	-243.38
579.474	-173.38
579.596	-212.38
579.717	38.62
579.839	-129.38
579.96	-452.38
580.081	-67.38
580.203	-205.38
580.324	-88.38
580.446	-35.38
580.567	-163.38
580.688	173.62
580.81	-312.38
580.931	-239.38
581.053	-393.38
581.174	-139.38
581.295	-260.38
581.417	-56.38
581.538	-11.38
581.659	-19.38
581.781	-150.38
581.902	-236.38
582.024	-308.38
582.145	-319.38
582.266	-275.38
582.388	-201.38
582.509	-325.38
582.63	-140.38
582.751	-243.38
582.873	-219.38
582.994	-224.38
583.115	-185.38
583.237	-91.38
583.358	-289.38
583.479	-433.38
583.6	11.62
583.722	-193.38
583.843	-305.38
583.964	-44.38
584.086	-252.38
584.207	-46.38
584.328	-339.38
584.449	-108.38
584.57	-101.38
584.692	-151.38
584.813	839.62
584.934	-155.38
585.055	-286.38
585.177	-9.38
585.298	-127.38
585.419	-346.38
585.54	151.62
585.661	-57.38
585.783	-128.38
585.904	-277.38
586.025	57.62
586.146	-289.38
586.267	-245.38
586.388	-197.38
586.51	284.62
586.631	-328.38
586.752	-326.38
586.873	-241.38
586.994	-352.38
587.115	-327.38
587.236	-256.38
587.357	-401.38
587.479	-317.38
587.6	40.62
587.721	-250.38
587.842	-298.38
587.963	165.62
588.084	55.62
588.205	-305.38
588.326	-218.38
588.447	-155.38
588.568	-154.38
588.689	-108.38
588.81	-81.38
588.931	-185.38
589.052	-246.38
589.174	-294.38
589.295	-89.38
589.416	-95.38
589.537	17.62
589.658	-260.38
589.779	-385.38
589.9	45.62
590.021	-213.38
590.142	-240.38
590.263	-381.38
590.384	-162.38
590.505	222.62
590.626	-305.38
590.747	-131.38
590.867	-48.38
590.988	-56.38
591.109	-225.38
591.23	40.62
591.351	-20.38
591.472	-166.38
591.593	-240.38
591.714	-126.38
591.835	-208.38
591.956	-219.38
592.077	-411.38
592.198	-161.38
592.319	-67.38
592.44	-7.38
592.56	-272.38
592.681	-383.38
592.802	-51.38
592.923	-181.38
593.044	-306.38
593.165	-328.38
593.286	-80.38
593.407	-268.38
593.527	27.62
593.648	-320.38
593.769	-70.38
593.89	87.62
594.011	-159.38
594.132	-265.38
594.252	-115.38
594.373	-288.38
594.494	-390.38
594.615	-212.38
594.736	-207.38
594.856	73.62
594.977	-334.38
595.098	-96.38
595.219	-334.38
595.34	-97.38
595.46	-364.38
595.581	204.62
595.702	-142.38
595.823	-320.38
595.943	-83.38
596.064	-184.38
596.185	94.62
596.306	-384.38
596.426	-277.38
596.547	-367.38
596.668	-99.38
596.788	-61.38
596.909	-173.38
597.03	-99.38
597.151	-139.38
597.271	-252.38
597.392	-172.38
597.513	-96.38
597.633	-3.38
597.754	-131.38
597.875	-191.38
597.995	79.62
598.116	-103.38
598.237	-190.38
598.357	-304.38
598.478	-286.38
598.599	169.62
598.719	-187.38
598.84	-343.38
598.96	-279.38
599.081	-150.38
599.202	-166.38
599.322	-298.38
599.443	-337.38
599.563	-68.38
599.684	37.62
599.805	-248.38
599.925	-376.38
600.046	225.62
600.166	-195.38
600.287	-86.38
600.407	-156.38
600.528	52.62
600.649	-54.38
600.769	-153.38
600.89	-342.38
601.01	-4.38
601.131	-250.38
601.251	124.62
601.372	-132.38
601.492	-227.38
601.613	-257.38
601.733	-222.38
601.854	168.62
601.974	327.62
602.095	138.62
602.215	-352.38
602.336	-362.38
602.456	238.62
602.577	-268.38
602.697	653.62
602.817	-36.38
602.938	-136.38
603.058	-43.38
603.179	-328.38
603.299	-329.38
603.42	-341.38
603.54	-81.38
603.66	-347.38
603.781	-137.38
603.901	-236.38
604.022	111.62
604.142	-173.38
604.262	-167.38
604.383	-225.38
604.503	108.62
604.624	-275.38
604.744	-105.38
604.864	-31.38
604.985	-214.38
605.105	-105.38
605.225	-137.38
605.346	-130.38
605.466	11.62
605.586	175.62
605.707	265.62
605.827	-334.38
605.947	-190.38
606.068	-219.38
606.188	-188.38
606.308	-238.38
606.429	36.62
606.549	-252.38
606.669	-352.38
606.789	-269.38
606.91	-52.38
607.03	-284.38
607.15	-265.38
607.27	-108.38
607.391	0.62
607.511	-275.38
607.631	-293.38
607.751	161.62
607.872	-31.38
607.992	-339.38
608.112	7.62
608.232	-253.38
608.353	-287.38
608.473	-244.38
608.593	111.62
608.713	332.62
608.833	-160.38
608.954	-263.38
609.074	-221.38
609.194	-313.38
609.314	187.62
609.434	-35.38
609.554	-165.38
609.675	137.62
609.795	-239.38
609.915	-298.38
610.035	262.62
610.155	-170.38
610.275	-222.38
610.395	-29.38
610.516	-362.38
610.636	-119.38
610.756	-64.38
610.876	-50.38
610.996	-308.38
611.116	181.62
611.236	-339.38
611.356	-287.38
611.476	-153.38
611.596	-85.38
611.716	76.62
611.836	-305.38
611.957	-325.38
612.077	-128.38
612.197	-80.38
612.317	-286.38
612.437	63.62
612.557	78.62
612.677	-184.38
612.797	-156.38
612.917	-341.38
613.037	-64.38
613.157	-96.38
613.277	-141.38
613.397	109.62
613.517	113.62
613.637	-244.38
613.757	-177.38
613.877	-259.38
613.997	-84.38
614.117	-242.38
614.237	-215.38
614.356	-106.38
614.476	76.62
614.596	20.62
614.716	-192.38
614.836	-178.38
614.956	-9.38
615.076	-85.38
615.196	-336.38
615.316	-122.38
615.436	-54.38
615.556	128.62
615.676	196.62
615.795	-93.38
615.915	-75.38
616.035	-220.38
616.155	-160.38
616.275	-269.38
616.395	-201.38
616.515	21.62
616.635	-405.38
616.754	-435.38
616.874	-27.38
616.994	-132.38
617.114	223.62
617.234	40.62
617.354	36.62
617.473	356.62
617.593	-258.38
617.713	-129.38
617.833	-43.38
617.953	-59.38
618.072	-466.38
618.192	-270.38
618.312	54.62
618.432	75.62
618.551	-292.38
618.671	-278.38
618.791	-23.38
618.911	-104.38
619.03	-191.38
619.15	-144.38
619.27	-173.38
619.39	-224.38
619.509	-190.38
619.629	-201.38
619.749	-254.38
619.868	-101.38
619.988	-395.38
620.108	-218.38
620.228	729.62
620.347	-102.38
620.467	-289.38
620.587	-314.38
620.706	67.62
620.826	-248.38
620.946	-301.38
621.065	-9.38
621.185	273.62
621.305	-199.38
621.424	-217.38
621.544	-426.38
621.663	-35.38
621.783	-203.38
621.903	202.62
622.022	-310.38
622.142	-109.38
622.261	166.62
622.381	-132.38
622.501	-85.38
622.62	-202.38
622.74	-90.38
622.859	-206.38
622.979	58.62
623.099	-207.38
623.218	-41.38
623.338	111.62
623.457	-107.38
623.577	-215.38
623.696	-45.38
623.816	-384.38
623.935	-303.38
624.055	-241.38
624.174	-132.38
624.294	-185.38
624.413	-366.38
624.533	-59.38
624.652	98.62
624.772	-275.38
624.891	-373.38
625.011	16.62
625.13	-182.38
625.25	-388.38
625.369	-235.38
625.489	-195.38
625.608	-269.38
625.728	-187.38
625.847	-150.38
625.966	-260.38
626.086	-251.38
626.205	-366.38
626.325	-91.38
626.444	-132.38
626.564	180.62
626.683	8.62
626.802	-24.38
626.922	92.62
627.041	-3.38
627.161	-151.38
627.28	10.62
627.399	2.62
627.519	-96.38
627.638	-396.38
627.757	-285.38
627.877	-177.38
627.996	-128.38
628.115	-47.38
628.235	-30.38
628.354	-307.38
628.473	-115.38
628.593	87.62
628.712	-136.38
628.831	-109.38
628.951	-330.38
629.07	68.62
629.189	-115.38
629.309	-164.38
629.428	197.62
629.547	-365.38
629.666	-37.38
629.786	-126.38
629.905	-283.38
630.024	-17.38
630.143	-81.38
630.263	-145.38
630.382	224.62
630.501	-217.38
630.62	-253.38
630.74	-295.38
630.859	116.62
630.978	-194.38
631.097	-365.38
631.216	-261.38
631.336	167.62
631.455	-287.38
631.574	-240.38
631.693	-32.38
631.812	-175.38
631.932	-413.38
632.051	53.62
632.17	308.62
632.289	35.62
632.408	-258.38
632.527	-159.38
632.646	-78.38
632.766	-246.38
632.885	157.62
633.004	-369.38
633.123	-159.38
633.242	-249.38
633.361	617.62
633.48	-259.38
633.599	-236.38
633.718	60.62
633.838	-90.38
633.957	-342.38
634.076	-90.38
634.195	-179.38
634.314	-44.38
634.433	-64.38
634.552	-223.38
634.671	-94.38
634.79	199.62
634.909	45.62
635.028	-67.38
635.147	-7.38
635.266	-285.38
635.385	-96.38
635.504	-313.38
635.623	-28.38
635.742	-351.38
635.861	-386.38
635.98	-106.38
636.099	-210.38
636.218	-184.38
636.337	-121.38
636.456	302.62
636.575	2.62
636.694	-116.38
636.813	-351.38
636.932	-306.38
637.051	-81.38
637.17	-415.38
637.289	-127.38
637.408	-312.38
637.526	-95.38
637.645	-458.38
637.764	-357.38
637.883	-197.38
638.002	4.62
638.121	325.62
638.24	-280.38
638.359	41.62
638.478	-197.38
638.597	-332.38
638.715	377.62
638.834	-142.38
638.953	9.62
639.072	-314.38
639.191	-389.38
639.31	39.62
639.428	-114.38
639.547	-100.38
639.666	0.62
639.785	-5.38
639.904	-95.38
640.023	-360.38
640.141	-240.38
640.26	-155.38
640.379	18.62
640.498	-401.38
640.616	-115.38
640.735	-109.38
640.854	72.62
640.973	-360.38
641.092	-31.38
641.21	-17.38
641.329	-144.38
641.448	-21.38
641.567	211.62
641.685	-136.38
641.804	-149.38
641.923	-144.38
642.041	-289.38
642.16	-139.38
642.279	94.62
642.398	-228.38
642.516	-315.38
642.635	132.62
642.754	-176.38
642.872	30.62
642.991	69.62
643.11	-224.38
643.228	-273.38
643.347	-364.38
643.466	-383.38
643.584	41.62
643.703	244.62
643.821	-133.38
643.94	-104.38
644.059	-46.38
644.177	56.62
644.296	-329.38
644.415	-253.38
644.533	-90.38
644.652	15.62
644.77	-354.38
644.889	-338.38
645.008	13.62
645.126	-214.38
645.245	-54.38
645.363	8.62
645.482	-69.38
645.6	-136.38
645.719	-194.38
645.837	-243.38
645.956	-69.38
646.074	-294.38
646.193	-297.38
646.312	-5.38
646.43	186.62
646.549	244.62
646.667	-468.38
646.786	-326.38
646.904	36.62
647.023	-8.38
647.141	-331.38
647.26	-16.38
647.378	453.62
647.496	-129.38
647.615	-86.38
647.733	-115.38
647.852	220.62
647.97	-195.38
648.089	4.62
648.207	-38.38
648.326	88.62
648.444	-141.38
648.562	-194.38
648.681	-105.38
648.799	-158.38
648.918	-94.38
649.036	-162.38
649.154	-274.38
649.273	60.62
649.391	-135.38
649.51	-284.38
649.628	-327.38
649.746	186.62
649.865	-202.38
649.983	-322.38
650.101	-132.38
650.22	-101.38
650.338	-208.38
650.456	-187.38
650.575	-236.38
650.693	-286.38
650.811	-41.38
650.93	-360.38
651.048	1059.62
651.166	304.62
651.285	-118.38
651.403	-62.38
651.521	-137.38
651.639	-102.38
651.758	-132.38
651.876	186.62
651.994	-318.38
652.112	95.62
652.231	-85.38
652.349	-282.38
652.467	-481.38
652.585	-104.38
652.704	-7.38
652.822	-397.38
652.94	-385.38
653.058	-46.38
653.176	-221.38
653.295	-163.38
653.413	12.62
653.531	-197.38
653.649	-132.38
653.767	-311.38
653.886	-328.38
654.004	-234.38
654.122	153.62
654.24	-377.38
654.358	-324.38
654.476	-131.38
654.594	209.62
654.713	-216.38
654.831	-427.38
654.949	-150.38
655.067	0.62
655.185	-343.38
655.303	-232.38
655.421	-139.38
655.539	120.62
655.658	-169.38
655.776	-233.38
655.894	6.62
656.012	170.62
656.13	-412.38
656.248	-229.38
656.366	-243.38
656.484	-150.38
656.602	-335.38
656.72	-274.38
656.838	-78.38
656.956	-163.38
657.074	-54.38
657.192	-96.38
657.31	-212.38
657.428	-184.38
657.546	-109.38
657.664	-117.38
657.782	-130.38
657.9	80.62
658.018	-234.38
658.136	-194.38
658.254	46.62
658.372	135.62
658.49	-306.38
658.608	-313.38
658.726	-6.38
658.844	16.62
658.962	-293.38
659.08	-347.38
659.198	-27.38
659.316	-103.38
