Data from HR4D30811__2__00002.txt Node

Date: Fri Jan 26 16:31:42 MST 2024
User: Brock
Spectrometer: HR4D3081
Trigger mode: 4
Integration Time (sec): 8.000000E0
Scans to average: 1
Electric dark correction enabled: true
Nonlinearity correction enabled: false
Boxcar width: 0
XAxis mode: Wavelengths
Number of Pixels in Spectrum: 3648
>>>>>Begin Spectral Data<<<<<
197.25	-1193.69
197.385	-1193.69
197.519	-1193.69
197.653	-1209.69
197.787	184.31
197.922	-128.69
198.056	60.31
198.19	3.31
198.324	-8.69
198.459	-210.69
198.593	437.31
198.727	-7.69
198.861	-94.69
198.996	205.31
199.13	-273.69
199.264	-209.69
199.398	-55.69
199.533	283.31
199.667	138.31
199.801	-92.69
199.935	-265.69
200.07	-4.69
200.204	-13.69
200.338	-185.69
200.472	-183.69
200.606	-332.69
200.741	-140.69
200.875	-99.69
201.009	-139.69
201.143	-193.69
201.277	80.31
201.412	92.31
201.546	263.31
201.68	162.31
201.814	-150.69
201.948	62.31
202.082	-40.69
202.217	-322.69
202.351	-125.69
202.485	-10.69
202.619	-234.69
202.753	-317.69
202.887	292.31
203.021	171.31
203.156	224.31
203.29	54.31
203.424	-46.69
203.558	-144.69
203.692	-72.69
203.826	-302.69
203.96	-93.69
204.094	184.31
204.229	-185.69
204.363	-204.69
204.497	-314.69
204.631	-298.69
204.765	-178.69
204.899	-128.69
205.033	-148.69
205.167	-221.69
205.301	12.31
205.435	-311.69
205.569	-100.69
205.704	-55.69
205.838	-290.69
205.972	-140.69
206.106	534.31
206.24	-140.69
206.374	-209.69
206.508	31.31
206.642	19.31
206.776	-46.69
206.91	156.31
207.044	5.31
207.178	115.31
207.312	1.31
207.446	-152.69
207.58	-158.69
207.714	-260.69
207.848	174.31
207.982	-353.69
208.116	28.31
208.25	-229.69
208.384	-160.69
208.518	-150.69
208.652	-223.69
208.786	-263.69
208.92	226.31
209.054	-51.69
209.188	-256.69
209.322	-106.69
209.456	-119.69
209.59	-285.69
209.724	-89.69
209.858	-18.69
209.992	-74.69
210.126	-177.69
210.26	-133.69
210.394	-88.69
210.528	-27.69
210.662	-208.69
210.796	-141.69
210.929	143.31
211.063	-15.69
211.197	-86.69
211.331	-30.69
211.465	-189.69
211.599	62.31
211.733	126.31
211.867	-157.69
212.001	-158.69
212.135	-21.69
212.269	-236.69
212.402	-178.69
212.536	82.31
212.67	-128.69
212.804	-248.69
212.938	85.31
213.072	-203.69
213.206	-58.69
213.34	-147.69
213.473	-111.69
213.607	114.31
213.741	-261.69
213.875	-276.69
214.009	-212.69
214.143	-127.69
214.277	-112.69
214.41	-206.69
214.544	261.31
214.678	152.31
214.812	263.31
214.946	-239.69
215.08	-183.69
215.213	-211.69
215.347	-113.69
215.481	-79.69
215.615	-335.69
215.749	16.31
215.882	-247.69
216.016	-286.69
216.15	87.31
216.284	174.31
216.418	18.31
216.551	113.31
216.685	44.31
216.819	-254.69
216.953	-149.69
217.086	271.31
217.22	-176.69
217.354	-11.69
217.488	56.31
217.621	78.31
217.755	-28.69
217.889	-139.69
218.023	-60.69
218.156	99.31
218.29	69.31
218.424	197.31
218.558	-248.69
218.691	-356.69
218.825	-81.69
218.959	440.31
219.092	-118.69
219.226	-343.69
219.36	-305.69
219.494	-16.69
219.627	-170.69
219.761	-196.69
219.895	-86.69
220.028	-288.69
220.162	530.31
220.296	133.31
220.429	-6.69
220.563	-63.69
220.697	-15.69
220.83	-223.69
220.964	-161.69
221.098	-259.69
221.231	-235.69
221.365	65.31
221.499	-199.69
221.632	-250.69
221.766	53.31
221.9	-110.69
222.033	110.31
222.167	94.31
222.3	-188.69
222.434	-5.69
222.568	287.31
222.701	-160.69
222.835	-111.69
222.968	-223.69
223.102	-223.69
223.236	-252.69
223.369	18.31
223.503	13.31
223.636	-241.69
223.77	-158.69
223.904	10.31
224.037	-172.69
224.171	108.31
224.304	26.31
224.438	-172.69
224.571	-101.69
224.705	170.31
224.839	-36.69
224.972	-318.69
225.106	-15.69
225.239	-115.69
225.373	78.31
225.506	-100.69
225.64	71.31
225.773	-140.69
225.907	-177.69
226.04	-323.69
226.174	-121.69
226.307	-45.69
226.441	-138.69
226.575	26.31
226.708	173.31
226.842	-96.69
226.975	-137.69
227.109	-219.69
227.242	24.31
227.375	54.31
227.509	-35.69
227.642	-139.69
227.776	40.31
227.909	76.31
228.043	-244.69
228.176	215.31
228.31	-246.69
228.443	358.31
228.577	-73.69
228.71	-145.69
228.844	20.31
228.977	-259.69
229.111	-165.69
229.244	54.31
229.377	-293.69
229.511	-28.69
229.644	-188.69
229.778	-144.69
229.911	-203.69
230.044	-121.69
230.178	-12.69
230.311	-205.69
230.445	56.31
230.578	-193.69
230.711	-83.69
230.845	327.31
230.978	47.31
231.112	-212.69
231.245	-235.69
231.378	-216.69
231.512	55.31
231.645	-393.69
231.779	-314.69
231.912	-23.69
232.045	44.31
232.179	-207.69
232.312	-135.69
232.445	101.31
232.579	275.31
232.712	150.31
232.845	-187.69
232.979	-348.69
233.112	72.31
233.245	-106.69
233.379	-290.69
233.512	22.31
233.645	-231.69
233.779	-220.69
233.912	16.31
234.045	-153.69
234.179	36.31
234.312	-136.69
234.445	37.31
234.578	1.31
234.712	19.31
234.845	57.31
234.978	-180.69
235.112	-57.69
235.245	120.31
235.378	-183.69
235.511	-2.69
235.645	39.31
235.778	-21.69
235.911	-164.69
236.044	-286.69
236.178	293.31
236.311	-249.69
236.444	-225.69
236.577	-217.69
236.711	-49.69
236.844	-390.69
236.977	-122.69
237.11	-165.69
237.243	27.31
237.377	-270.69
237.51	-233.69
237.643	945.31
237.776	-155.69
237.909	-126.69
238.043	-3.69
238.176	-228.69
238.309	-77.69
238.442	-304.69
238.575	-110.69
238.709	403.31
238.842	23.31
238.975	-23.69
239.108	183.31
239.241	-299.69
239.374	-225.69
239.508	-223.69
239.641	208.31
239.774	349.31
239.907	-65.69
240.04	-280.69
240.173	42.31
240.306	231.31
240.44	-156.69
240.573	186.31
240.706	-139.69
240.839	-2.69
240.972	-64.69
241.105	-37.69
241.238	43.31
241.371	-20.69
241.504	-54.69
241.638	-116.69
241.771	22.31
241.904	-148.69
242.037	45.31
242.17	-175.69
242.303	-317.69
242.436	-87.69
242.569	-108.69
242.702	-203.69
242.835	-165.69
242.968	-16.69
243.101	-109.69
243.234	-220.69
243.367	-241.69
243.5	-111.69
243.634	-154.69
243.767	-283.69
243.9	-218.69
244.033	-242.69
244.166	78.31
244.299	-327.69
244.432	-234.69
244.565	5.31
244.698	-324.69
244.831	-158.69
244.964	-259.69
245.097	-185.69
245.23	9.31
245.363	146.31
245.496	-244.69
245.629	-153.69
245.762	459.31
245.895	-240.69
246.028	-196.69
246.161	451.31
246.294	20.31
246.427	-232.69
246.559	108.31
246.692	-37.69
246.825	-148.69
246.958	-242.69
247.091	-303.69
247.224	-299.69
247.357	-211.69
247.49	114.31
247.623	-176.69
247.756	-234.69
247.889	285.31
248.022	-86.69
248.155	-271.69
248.288	-81.69
248.421	-227.69
248.553	51.31
248.686	-231.69
248.819	69.31
248.952	-250.69
249.085	190.31
249.218	-35.69
249.351	-83.69
249.484	182.31
249.617	-85.69
249.749	-277.69
249.882	-209.69
250.015	-219.69
250.148	-165.69
250.281	-241.69
250.414	-152.69
250.547	-147.69
250.679	219.31
250.812	-85.69
250.945	19.31
251.078	-214.69
251.211	-147.69
251.344	-277.69
251.476	-158.69
251.609	20.31
251.742	-276.69
251.875	-87.69
252.008	-194.69
252.14	-315.69
252.273	-107.69
252.406	182.31
252.539	-28.69
252.672	-57.69
252.804	149.31
252.937	-254.69
253.07	-36.69
253.203	-95.69
253.335	91.31
253.468	-360.69
253.601	-126.69
253.734	-65.69
253.866	-154.69
253.999	372.31
254.132	-5.69
254.265	-140.69
254.397	-174.69
254.53	-131.69
254.663	33.31
254.796	-204.69
254.928	-267.69
255.061	-229.69
255.194	-68.69
255.327	-289.69
255.459	-33.69
255.592	-257.69
255.725	176.31
255.857	-212.69
255.99	5.31
256.123	-243.69
256.255	-246.69
256.388	-80.69
256.521	-235.69
256.653	-296.69
256.786	-232.69
256.919	-171.69
257.051	-245.69
257.184	1.31
257.317	-222.69
257.449	-231.69
257.582	-94.69
257.715	-183.69
257.847	-217.69
257.98	-93.69
258.113	-209.69
258.245	-136.69
258.378	-350.69
258.51	-242.69
258.643	-240.69
258.776	26.31
258.908	-260.69
259.041	-104.69
259.174	-169.69
259.306	-199.69
259.439	-294.69
259.571	-191.69
259.704	-102.69
259.837	162.31
259.969	-242.69
260.102	-217.69
260.234	227.31
260.367	65.31
260.499	-206.69
260.632	-145.69
260.765	-188.69
260.897	-191.69
261.03	-241.69
261.162	-59.69
261.295	-93.69
261.427	92.31
261.56	-89.69
261.692	-252.69
261.825	-48.69
261.957	88.31
262.09	90.31
262.222	39.31
262.355	-254.69
262.487	-121.69
262.62	-278.69
262.752	-82.69
262.885	-150.69
263.017	19.31
263.15	-202.69
263.282	-75.69
263.415	-263.69
263.547	-15.69
263.68	225.31
263.812	-312.69
263.945	-95.69
264.077	-274.69
264.21	185.31
264.342	-273.69
264.475	-207.69
264.607	148.31
264.74	-386.69
264.872	-67.69
265.004	141.31
265.137	63.31
265.269	369.31
265.402	-225.69
265.534	-181.69
265.667	-161.69
265.799	84.31
265.931	-94.69
266.064	26.31
266.196	-110.69
266.329	-177.69
266.461	-158.69
266.593	40.31
266.726	-326.69
266.858	-171.69
266.99	-86.69
267.123	-156.69
267.255	-48.69
267.388	-130.69
267.52	-231.69
267.652	-202.69
267.785	142.31
267.917	12.31
268.049	-153.69
268.182	419.31
268.314	87.31
268.446	-331.69
268.579	-190.69
268.711	202.31
268.843	-206.69
268.976	-70.69
269.108	358.31
269.24	142.31
269.373	-11.69
269.505	-143.69
269.637	-128.69
269.77	-224.69
269.902	169.31
270.034	-261.69
270.167	46.31
270.299	-0.69
270.431	2.31
270.563	-189.69
270.696	34.31
270.828	-80.69
270.96	-66.69
271.092	17.31
271.225	-263.69
271.357	-89.69
271.489	-188.69
271.621	-248.69
271.754	542.31
271.886	-199.69
272.018	-163.69
272.15	298.31
272.283	-259.69
272.415	-166.69
272.547	60.31
272.679	113.31
272.811	-73.69
272.944	-114.69
273.076	-353.69
273.208	-20.69
273.34	-41.69
273.473	-127.69
273.605	73.31
273.737	-256.69
273.869	-15.69
274.001	-405.69
274.133	9.31
274.266	-206.69
274.398	1460.31
274.53	59.31
274.662	138.31
274.794	6.31
274.926	67.31
275.059	-160.69
275.191	12.31
275.323	-241.69
275.455	87.31
275.587	-208.69
275.719	-140.69
275.851	-111.69
275.983	41.31
276.116	0.31
276.248	108.31
276.38	-247.69
276.512	2.31
276.644	-165.69
276.776	-232.69
276.908	-30.69
277.04	-93.69
277.172	34.31
277.304	-188.69
277.437	7.31
277.569	-201.69
277.701	-213.69
277.833	-63.69
277.965	-162.69
278.097	43.31
278.229	-171.69
278.361	-146.69
278.493	97.31
278.625	240.31
278.757	-20.69
278.889	-242.69
279.021	-149.69
279.153	490.31
279.285	-243.69
279.417	575.31
279.549	76.31
279.681	-124.69
279.813	-179.69
279.945	55.31
280.077	-188.69
280.209	1109.31
280.341	-269.69
280.473	-112.69
280.605	63.31
280.737	-20.69
280.869	234.31
281.001	-53.69
281.133	-303.69
281.265	-36.69
281.397	-133.69
281.529	277.31
281.661	-261.69
281.793	-358.69
281.925	-213.69
282.057	-140.69
282.189	-163.69
282.321	-18.69
282.453	20.31
282.585	-247.69
282.717	129.31
282.849	-84.69
282.98	-161.69
283.112	-220.69
283.244	-18.69
283.376	-239.69
283.508	-351.69
283.64	-249.69
283.772	115.31
283.904	88.31
284.036	-258.69
284.168	102.31
284.299	-63.69
284.431	-17.69
284.563	-128.69
284.695	-132.69
284.827	-239.69
284.959	7.31
285.091	-230.69
285.222	-292.69
285.354	-176.69
285.486	-100.69
285.618	-231.69
285.75	-103.69
285.882	168.31
286.013	48.31
286.145	-55.69
286.277	10.31
286.409	76.31
286.541	37.31
286.673	-239.69
286.804	-219.69
286.936	-68.69
287.068	-182.69
287.2	-251.69
287.332	319.31
287.463	-296.69
287.595	-34.69
287.727	391.31
287.859	-104.69
287.99	-117.69
288.122	-178.69
288.254	43.31
288.386	-148.69
288.517	-287.69
288.649	-131.69
288.781	-7.69
288.913	-28.69
289.044	-279.69
289.176	204.31
289.308	-183.69
289.44	-355.69
289.571	-204.69
289.703	-266.69
289.835	70.31
289.967	-241.69
290.098	-306.69
290.23	-303.69
290.362	116.31
290.493	-326.69
290.625	-205.69
290.757	-172.69
290.888	-100.69
291.02	-9.69
291.152	-49.69
291.283	-10.69
291.415	-124.69
291.547	-259.69
291.678	-232.69
291.81	-31.69
291.942	284.31
292.073	-22.69
292.205	-279.69
292.337	62.31
292.468	514.31
292.6	-201.69
292.732	606.31
292.863	-240.69
292.995	-313.69
293.126	43.31
293.258	203.31
293.39	-282.69
293.521	-231.69
293.653	-310.69
293.785	95.31
293.916	-163.69
294.048	61.31
294.179	17.31
294.311	-237.69
294.442	64.31
294.574	-279.69
294.706	-84.69
294.837	65.31
294.969	-50.69
295.1	-215.69
295.232	-226.69
295.363	189.31
295.495	-161.69
295.627	-13.69
295.758	139.31
295.89	-371.69
296.021	32.31
296.153	48.31
296.284	-49.69
296.416	-123.69
296.547	-180.69
296.679	-55.69
296.81	-48.69
296.942	-334.69
297.073	-271.69
297.205	-281.69
297.336	-178.69
297.468	-239.69
297.599	-60.69
297.731	-342.69
297.862	-97.69
297.994	-323.69
298.125	-249.69
298.257	-107.69
298.388	27.31
298.52	-8.69
298.651	-79.69
298.782	275.31
298.914	-253.69
299.045	-163.69
299.177	-306.69
299.308	-321.69
299.44	6.31
299.571	-49.69
299.702	-156.69
299.834	-109.69
299.965	-139.69
300.097	-251.69
300.228	-33.69
300.36	-76.69
300.491	-90.69
300.622	14.31
300.754	-152.69
300.885	-198.69
301.017	-32.69
301.148	-163.69
301.279	-333.69
301.411	17.31
301.542	-19.69
301.673	-67.69
301.805	2.31
301.936	-228.69
302.067	-107.69
302.199	-157.69
302.33	-266.69
302.461	314.31
302.593	10.31
302.724	-0.69
302.855	-303.69
302.987	-108.69
303.118	-293.69
303.249	-314.69
303.381	-135.69
303.512	-202.69
303.643	-225.69
303.775	103.31
303.906	-258.69
304.037	-262.69
304.169	-221.69
304.3	-174.69
304.431	-272.69
304.562	-211.69
304.694	-144.69
304.825	-35.69
304.956	131.31
305.087	-168.69
305.219	41.31
305.35	-60.69
305.481	-223.69
305.612	36.31
305.744	2.31
305.875	-165.69
306.006	528.31
306.137	-200.69
306.269	-28.69
306.4	53.31
306.531	116.31
306.662	-126.69
306.794	115.31
306.925	-216.69
307.056	-246.69
307.187	-20.69
307.318	-105.69
307.45	-149.69
307.581	-228.69
307.712	-238.69
307.843	-90.69
307.974	-63.69
308.105	134.31
308.237	-53.69
308.368	-290.69
308.499	-127.69
308.63	5.31
308.761	-103.69
308.892	-104.69
309.024	-153.69
309.155	-157.69
309.286	-151.69
309.417	-253.69
309.548	-153.69
309.679	-125.69
309.81	-400.69
309.941	430.31
310.073	-31.69
310.204	-320.69
310.335	-4.69
310.466	-143.69
310.597	-269.69
310.728	-152.69
310.859	365.31
310.99	303.31
311.121	-75.69
311.252	-59.69
311.383	-250.69
311.514	-63.69
311.646	-170.69
311.777	-50.69
311.908	-32.69
312.039	-135.69
312.17	-329.69
312.301	-114.69
312.432	-201.69
312.563	-315.69
312.694	-38.69
312.825	-149.69
312.956	-183.69
313.087	35.31
313.218	65.31
313.349	-110.69
313.48	-332.69
313.611	-123.69
313.742	-88.69
313.873	54.31
314.004	-22.69
314.135	-172.69
314.266	-35.69
314.397	-149.69
314.528	-251.69
314.659	-265.69
314.79	-202.69
314.921	54.31
315.052	47.31
315.183	-265.69
315.314	-299.69
315.445	51.31
315.576	-47.69
315.707	-132.69
315.838	-164.69
315.968	-28.69
316.099	-259.69
316.23	-284.69
316.361	88.31
316.492	-110.69
316.623	67.31
316.754	173.31
316.885	-366.69
317.016	-328.69
317.147	-335.69
317.278	87.31
317.408	-221.69
317.539	-278.69
317.67	-281.69
317.801	-9.69
317.932	-155.69
318.063	-206.69
318.194	-194.69
318.325	20.31
318.455	-345.69
318.586	-149.69
318.717	-13.69
318.848	-309.69
318.979	84.31
319.11	268.31
319.24	26.31
319.371	45.31
319.502	-92.69
319.633	-212.69
319.764	-121.69
319.895	-260.69
320.025	-80.69
320.156	-282.69
320.287	-405.69
320.418	-222.69
320.549	-47.69
320.679	-294.69
320.81	143.31
320.941	-326.69
321.072	-298.69
321.202	-5.69
321.333	255.31
321.464	-380.69
321.595	-263.69
321.726	227.31
321.856	-357.69
321.987	-142.69
322.118	-206.69
322.249	0.31
322.379	-55.69
322.51	10.31
322.641	-57.69
322.771	-325.69
322.902	-97.69
323.033	-95.69
323.164	687.31
323.294	-164.69
323.425	-232.69
323.556	-199.69
323.686	-123.69
323.817	285.31
323.948	-18.69
324.078	-143.69
324.209	136.31
324.34	-218.69
324.47	189.31
324.601	-199.69
324.732	-63.69
324.862	19.31
324.993	-198.69
325.124	-416.69
325.254	-55.69
325.385	-49.69
325.516	507.31
325.646	375.31
325.777	-131.69
325.908	-147.69
326.038	55.31
326.169	-124.69
326.299	-37.69
326.43	139.31
326.561	-109.69
326.691	-148.69
326.822	-256.69
326.952	-190.69
327.083	-57.69
327.214	-282.69
327.344	-84.69
327.475	-3.69
327.605	-57.69
327.736	-163.69
327.867	-284.69
327.997	-135.69
328.128	-29.69
328.258	-343.69
328.389	245.31
328.519	-281.69
328.65	53.31
328.78	-240.69
328.911	-32.69
329.041	78.31
329.172	-344.69
329.303	-213.69
329.433	-181.69
329.564	-248.69
329.694	-230.69
329.825	-203.69
329.955	-49.69
330.086	433.31
330.216	-144.69
330.347	-280.69
330.477	-123.69
330.608	-112.69
330.738	-116.69
330.868	-286.69
330.999	-154.69
331.129	134.31
331.26	-238.69
331.39	-177.69
331.521	187.31
331.651	22.31
331.782	-336.69
331.912	-288.69
332.043	-245.69
332.173	71.31
332.303	-338.69
332.434	114.31
332.564	-5.69
332.695	-209.69
332.825	-321.69
332.956	-189.69
333.086	-107.69
333.216	-269.69
333.347	-22.69
333.477	-412.69
333.608	-75.69
333.738	33.31
333.868	-115.69
333.999	-72.69
334.129	114.31
334.259	-72.69
334.39	-223.69
334.52	61.31
334.65	-152.69
334.781	160.31
334.911	-185.69
335.042	-256.69
335.172	-39.69
335.302	-126.69
335.433	283.31
335.563	-249.69
335.693	27.31
335.824	237.31
335.954	-339.69
336.084	8.31
336.214	-36.69
336.345	325.31
336.475	60.31
336.605	-212.69
336.736	313.31
336.866	-124.69
336.996	-158.69
337.126	-255.69
337.257	-46.69
337.387	-348.69
337.517	-228.69
337.648	-337.69
337.778	170.31
337.908	65.31
338.038	18.31
338.169	-174.69
338.299	237.31
338.429	-33.69
338.559	-240.69
338.69	-164.69
338.82	385.31
338.95	-19.69
339.08	-433.69
339.21	-316.69
339.341	-86.69
339.471	45.31
339.601	-108.69
339.731	-44.69
339.861	-163.69
339.992	-93.69
340.122	-109.69
340.252	-199.69
340.382	-199.69
340.512	-78.69
340.642	179.31
340.773	-74.69
340.903	-280.69
341.033	-115.69
341.163	-28.69
341.293	143.31
341.423	-200.69
341.554	-305.69
341.684	-23.69
341.814	-101.69
341.944	-178.69
342.074	-100.69
342.204	-130.69
342.334	184.31
342.464	-259.69
342.595	-156.69
342.725	-310.69
342.855	-26.69
342.985	-140.69
343.115	-270.69
343.245	-353.69
343.375	2.31
343.505	-109.69
343.635	2.31
343.765	-182.69
343.895	-389.69
344.025	52.31
344.155	-298.69
344.286	-162.69
344.416	-58.69
344.546	118.31
344.676	-84.69
344.806	125.31
344.936	-38.69
345.066	171.31
345.196	-234.69
345.326	-306.69
345.456	81.31
345.586	-238.69
345.716	-260.69
345.846	48.31
345.976	-338.69
346.106	-110.69
346.236	72.31
346.366	15.31
346.496	-161.69
346.626	-139.69
346.756	-186.69
346.886	-208.69
347.016	-335.69
347.146	-196.69
347.276	-266.69
347.406	-208.69
347.536	-52.69
347.666	105.31
347.795	-247.69
347.925	-136.69
348.055	120.31
348.185	-150.69
348.315	-182.69
348.445	109.31
348.575	-198.69
348.705	-250.69
348.835	-251.69
348.965	-155.69
349.095	-4.69
349.225	266.31
349.354	-249.69
349.484	-145.69
349.614	-144.69
349.744	-261.69
349.874	-253.69
350.004	-362.69
350.134	-268.69
350.264	-336.69
350.393	-301.69
350.523	134.31
350.653	-314.69
350.783	58.31
350.913	162.31
351.043	-221.69
351.173	-162.69
351.302	26.31
351.432	218.31
351.562	-75.69
351.692	-90.69
351.822	-148.69
351.951	-359.69
352.081	201.31
352.211	-108.69
352.341	179.31
352.471	120.31
352.6	-123.69
352.73	-182.69
352.86	-121.69
352.99	-3.69
353.12	-81.69
353.249	-16.69
353.379	-243.69
353.509	47.31
353.639	-298.69
353.768	-66.69
353.898	-224.69
354.028	-285.69
354.158	-151.69
354.287	-189.69
354.417	-274.69
354.547	-236.69
354.677	-373.69
354.806	-131.69
354.936	19.31
355.066	-195.69
355.195	-28.69
355.325	-10.69
355.455	-224.69
355.584	174.31
355.714	-235.69
355.844	109.31
355.974	-7.69
356.103	-99.69
356.233	-156.69
356.363	27.31
356.492	-256.69
356.622	-287.69
356.752	-48.69
356.881	-359.69
357.011	47.31
357.14	114.31
357.27	-170.69
357.4	78.31
357.529	-137.69
357.659	139.31
357.789	47.31
357.918	-310.69
358.048	-340.69
358.177	-140.69
358.307	-242.69
358.437	-69.69
358.566	-255.69
358.696	60.31
358.825	111.31
358.955	-299.69
359.085	36.31
359.214	-391.69
359.344	-111.69
359.473	-285.69
359.603	-156.69
359.733	-194.69
359.862	-322.69
359.992	54.31
360.121	-172.69
360.251	17.31
360.38	-317.69
360.51	83.31
360.639	-174.69
360.769	-75.69
360.898	69.31
361.028	57.31
361.157	-112.69
361.287	-19.69
361.416	-236.69
361.546	-119.69
361.675	-140.69
361.805	-164.69
361.934	26.31
362.064	-161.69
362.193	-201.69
362.323	-271.69
362.452	122.31
362.582	-229.69
362.711	-139.69
362.841	-6.69
362.97	17.31
363.1	-264.69
363.229	-320.69
363.359	-107.69
363.488	-232.69
363.617	-117.69
363.747	-86.69
363.876	-361.69
364.006	-45.69
364.135	-94.69
364.265	-174.69
364.394	-209.69
364.523	274.31
364.653	-240.69
364.782	-2.69
364.912	-253.69
365.041	-304.69
365.17	-263.69
365.3	-38.69
365.429	176.31
365.558	-142.69
365.688	-214.69
365.817	-253.69
365.947	-99.69
366.076	-35.69
366.205	-72.69
366.335	-337.69
366.464	-268.69
366.593	92.31
366.723	-121.69
366.852	-57.69
366.981	-88.69
367.111	-257.69
367.24	-165.69
367.369	-135.69
367.499	502.31
367.628	127.31
367.757	-167.69
367.886	-24.69
368.016	105.31
368.145	-107.69
368.274	-87.69
368.404	-292.69
368.533	-91.69
368.662	39.31
368.791	-179.69
368.921	-377.69
369.05	179.31
369.179	-52.69
369.308	300.31
369.438	-299.69
369.567	-356.69
369.696	-141.69
369.825	-17.69
369.955	-173.69
370.084	-27.69
370.213	-89.69
370.342	-296.69
370.472	-290.69
370.601	403.31
370.73	46.31
370.859	-406.69
370.988	-185.69
371.118	-269.69
371.247	-1.69
371.376	116.31
371.505	-77.69
371.634	-40.69
371.763	-119.69
371.893	-249.69
372.022	-178.69
372.151	-258.69
372.28	-337.69
372.409	-401.69
372.538	-177.69
372.667	-50.69
372.797	112.31
372.926	-310.69
373.055	-44.69
373.184	-140.69
373.313	-250.69
373.442	-43.69
373.571	-224.69
373.7	-138.69
373.83	-25.69
373.959	-393.69
374.088	-161.69
374.217	94.31
374.346	-173.69
374.475	-352.69
374.604	-251.69
374.733	272.31
374.862	-120.69
374.991	-255.69
375.12	-35.69
375.249	-33.69
375.378	-233.69
375.508	-312.69
375.637	-288.69
375.766	56.31
375.895	-189.69
376.024	172.31
376.153	-246.69
376.282	-149.69
376.411	-227.69
376.54	-416.69
376.669	-66.69
376.798	-193.69
376.927	-266.69
377.056	109.31
377.185	-93.69
377.314	93.31
377.443	262.31
377.572	-264.69
377.701	-276.69
377.83	119.31
377.959	6.31
378.088	1700.31
378.217	137.31
378.346	-179.69
378.474	-373.69
378.603	-255.69
378.732	-51.69
378.861	-189.69
378.99	-291.69
379.119	-368.69
379.248	-54.69
379.377	-181.69
379.506	-201.69
379.635	118.31
379.764	-63.69
379.893	-264.69
380.022	-280.69
380.15	-86.69
380.279	-316.69
380.408	-232.69
380.537	-132.69
380.666	-29.69
380.795	-50.69
380.924	-139.69
381.053	-245.69
381.181	-64.69
381.31	766.31
381.439	-254.69
381.568	-172.69
381.697	-180.69
381.826	-118.69
381.955	-254.69
382.083	-109.69
382.212	-323.69
382.341	36.31
382.47	-228.69
382.599	-139.69
382.727	216.31
382.856	-62.69
382.985	-16.69
383.114	-150.69
383.243	-225.69
383.371	-164.69
383.5	-244.69
383.629	-256.69
383.758	-252.69
383.887	-420.69
384.015	-78.69
384.144	-300.69
384.273	-97.69
384.402	-10.69
384.53	-242.69
384.659	-278.69
384.788	-272.69
384.917	-221.69
385.045	-111.69
385.174	-112.69
385.303	-377.69
385.432	24.31
385.56	-106.69
385.689	-158.69
385.818	-67.69
385.946	-8.69
386.075	-251.69
386.204	-263.69
386.332	-109.69
386.461	81.31
386.59	25.31
386.718	-287.69
386.847	-166.69
386.976	-217.69
387.104	-346.69
387.233	-282.69
387.362	-90.69
387.49	-83.69
387.619	-289.69
387.748	-128.69
387.876	139.31
388.005	-110.69
388.134	96.31
388.262	-335.69
388.391	-241.69
388.52	-20.69
388.648	-257.69
388.777	75.31
388.905	-234.69
389.034	-178.69
389.163	-280.69
389.291	-130.69
389.42	27.31
389.548	111.31
389.677	-93.69
389.805	-84.69
389.934	-2.69
390.063	-315.69
390.191	-359.69
390.32	-236.69
390.448	-146.69
390.577	-272.69
390.705	-287.69
390.834	-129.69
390.962	-321.69
391.091	-259.69
391.22	92.31
391.348	150.31
391.477	-29.69
391.605	-327.69
391.734	-197.69
391.862	-204.69
391.991	-306.69
392.119	-271.69
392.248	-143.69
392.376	-115.69
392.505	-133.69
392.633	-226.69
392.762	313.31
392.89	-294.69
393.018	62.31
393.147	-179.69
393.275	-356.69
393.404	-311.69
393.532	-171.69
393.661	-78.69
393.789	-67.69
393.918	-103.69
394.046	-130.69
394.174	-121.69
394.303	-335.69
394.431	-209.69
394.56	27.31
394.688	-335.69
394.817	-383.69
394.945	65.31
395.073	54.31
395.202	-83.69
395.33	-170.69
395.459	-110.69
395.587	111.31
395.715	50.31
395.844	-98.69
395.972	-393.69
396.1	127.31
396.229	-276.69
396.357	-50.69
396.485	-198.69
396.614	-230.69
396.742	102.31
396.87	-91.69
396.999	-10.69
397.127	-329.69
397.255	-55.69
397.384	49.31
397.512	-357.69
397.64	-255.69
397.769	-153.69
397.897	-18.69
398.025	-134.69
398.154	-53.69
398.282	173.31
398.41	-90.69
398.538	-90.69
398.667	-209.69
398.795	-239.69
398.923	24.31
399.052	-193.69
399.18	-170.69
399.308	-135.69
399.436	181.31
399.565	-309.69
399.693	-52.69
399.821	-124.69
399.949	-200.69
400.078	311.31
400.206	-293.69
400.334	-310.69
400.462	-141.69
400.59	-355.69
400.719	-204.69
400.847	-271.69
400.975	-47.69
401.103	-233.69
401.231	-71.69
401.36	-109.69
401.488	-32.69
401.616	-157.69
401.744	-162.69
401.872	-207.69
402	-5.69
402.129	-204.69
402.257	-267.69
402.385	-189.69
402.513	-116.69
402.641	-173.69
402.769	-144.69
402.897	-267.69
403.026	-346.69
403.154	-342.69
403.282	-296.69
403.41	-206.69
403.538	168.31
403.666	-322.69
403.794	-145.69
403.922	-89.69
404.05	-96.69
404.179	-129.69
404.307	-57.69
404.435	-289.69
404.563	-298.69
404.691	-363.69
404.819	462.31
404.947	-296.69
405.075	-254.69
405.203	-346.69
405.331	-243.69
405.459	-300.69
405.587	-78.69
405.715	-227.69
405.843	-220.69
405.971	-93.69
406.099	136.31
406.227	-35.69
406.355	-154.69
406.483	-370.69
406.611	-32.69
406.739	-276.69
406.867	-314.69
406.995	-227.69
407.123	-170.69
407.251	-377.69
407.379	-325.69
407.507	-42.69
407.635	-143.69
407.763	-417.69
407.891	-445.69
408.019	13.31
408.147	31.31
408.275	176.31
408.403	-345.69
408.531	-358.69
408.659	209.31
408.787	-74.69
408.915	-189.69
409.043	-232.69
409.171	67.31
409.299	0.31
409.427	83.31
409.554	-363.69
409.682	260.31
409.81	-102.69
409.938	-203.69
410.066	4.31
410.194	-56.69
410.322	-278.69
410.45	-226.69
410.578	-329.69
410.705	-286.69
410.833	-102.69
410.961	70.31
411.089	335.31
411.217	-149.69
411.345	-183.69
411.473	-261.69
411.6	-95.69
411.728	-184.69
411.856	-342.69
411.984	-279.69
412.112	-77.69
412.239	-83.69
412.367	-186.69
412.495	96.31
412.623	-262.69
412.751	36.31
412.878	-368.69
413.006	-186.69
413.134	84.31
413.262	184.31
413.39	-31.69
413.517	-79.69
413.645	41.31
413.773	-346.69
413.901	190.31
414.028	-171.69
414.156	-117.69
414.284	-281.69
414.412	14.31
414.539	-199.69
414.667	-252.69
414.795	-203.69
414.923	-397.69
415.05	-186.69
415.178	-34.69
415.306	331.31
415.433	-262.69
415.561	61.31
415.689	53.31
415.816	-225.69
415.944	172.31
416.072	-305.69
416.2	-6.69
416.327	257.31
416.455	-271.69
416.583	-205.69
416.71	-230.69
416.838	153.31
416.966	-312.69
417.093	-163.69
417.221	78.31
417.348	-68.69
417.476	-326.69
417.604	-199.69
417.731	-141.69
417.859	42.31
417.987	-93.69
418.114	-277.69
418.242	55.31
418.369	-196.69
418.497	-323.69
418.625	170.31
418.752	-107.69
418.88	-256.69
419.007	186.31
419.135	-32.69
419.263	-200.69
419.39	41.31
419.518	81.31
419.645	23.31
419.773	637.31
419.9	1784.31
420.028	4205.31
420.155	5078.31
420.283	7089.31
420.41	8057.31
420.538	8783.31
420.666	9459.31
420.793	9668.31
420.921	8757.31
421.048	6929.31
421.176	4679.31
421.303	2413.31
421.431	638.31
421.558	-77.69
421.686	229.31
421.813	89.31
421.941	-160.69
422.068	-40.69
422.195	126.31
422.323	45.31
422.45	-340.69
422.578	-52.69
422.705	-219.69
422.833	-136.69
422.96	-231.69
423.088	-11.69
423.215	383.31
423.343	329.31
423.47	-51.69
423.597	248.31
423.725	-116.69
423.852	-109.69
423.98	-68.69
424.107	-354.69
424.234	-131.69
424.362	-211.69
424.489	-245.69
424.617	502.31
424.744	-53.69
424.871	-294.69
424.999	-124.69
425.126	74.31
425.253	-39.69
425.381	-218.69
425.508	-289.69
425.636	41.31
425.763	-208.69
425.89	-231.69
426.018	-322.69
426.145	-116.69
426.272	-83.69
426.4	34.31
426.527	101.31
426.654	-292.69
426.781	-41.69
426.909	-90.69
427.036	-92.69
427.163	-374.69
427.291	-278.69
427.418	-160.69
427.545	-102.69
427.673	-349.69
427.8	-371.69
427.927	-302.69
428.054	-67.69
428.182	-143.69
428.309	-213.69
428.436	-223.69
428.563	-310.69
428.691	-35.69
428.818	-220.69
428.945	10.31
429.072	-322.69
429.2	-81.69
429.327	-56.69
429.454	46.31
429.581	-133.69
429.708	-385.69
429.836	-228.69
429.963	-221.69
430.09	-236.69
430.217	-212.69
430.344	-308.69
430.472	-303.69
430.599	-18.69
430.726	-230.69
430.853	-125.69
430.98	-22.69
431.107	-263.69
431.235	-99.69
431.362	-45.69
431.489	-103.69
431.616	240.31
431.743	93.31
431.87	-350.69
431.997	-169.69
432.125	-80.69
432.252	-474.69
432.379	-171.69
432.506	-72.69
432.633	-254.69
432.76	-120.69
432.887	91.31
433.014	-200.69
433.141	-274.69
433.268	-25.69
433.395	-214.69
433.523	-180.69
433.65	-200.69
433.777	-206.69
433.904	-180.69
434.031	-361.69
434.158	-89.69
434.285	39.31
434.412	-370.69
434.539	-99.69
434.666	-339.69
434.793	-270.69
434.92	-296.69
435.047	-17.69
435.174	-147.69
435.301	2.31
435.428	271.31
435.555	168.31
435.682	-69.69
435.809	-317.69
435.936	111.31
436.063	-235.69
436.19	120.31
436.317	-251.69
436.444	45.31
436.571	-248.69
436.698	13.31
436.825	102.31
436.952	-1.69
437.079	-65.69
437.206	10.31
437.333	-266.69
437.46	-176.69
437.587	-96.69
437.714	-293.69
437.84	-175.69
437.967	-340.69
438.094	-365.69
438.221	74.31
438.348	-153.69
438.475	7989.31
438.602	-319.69
438.729	-395.69
438.856	-244.69
438.983	-297.69
439.109	-3.69
439.236	64.31
439.363	-397.69
439.49	-211.69
439.617	-134.69
439.744	-255.69
439.871	438.31
439.997	-241.69
440.124	-58.69
440.251	-74.69
440.378	-263.69
440.505	-199.69
440.632	78.31
440.758	165.31
440.885	252.31
441.012	-285.69
441.139	31.31
441.266	-328.69
441.392	-207.69
441.519	-298.69
441.646	-351.69
441.773	-40.69
441.9	255.31
442.026	-224.69
442.153	-102.69
442.28	-54.69
442.407	-274.69
442.533	-14.69
442.66	-51.69
442.787	-84.69
442.914	-275.69
443.04	-205.69
443.167	-135.69
443.294	-101.69
443.421	-134.69
443.547	-318.69
443.674	-143.69
443.801	-46.69
443.927	87.31
444.054	406.31
444.181	70.31
444.307	83.31
444.434	-62.69
444.561	-316.69
444.688	-355.69
444.814	23.31
444.941	-206.69
445.068	-335.69
445.194	241.31
445.321	-262.69
445.447	177.31
445.574	-346.69
445.701	-366.69
445.827	-167.69
445.954	-375.69
446.081	3.31
446.207	-281.69
446.334	-122.69
446.461	-209.69
446.587	-422.69
446.714	-13.69
446.84	67.31
446.967	-279.69
447.094	-185.69
447.22	80.31
447.347	-138.69
447.473	-290.69
447.6	-74.69
447.726	-386.69
447.853	-112.69
447.98	-131.69
448.106	-50.69
448.233	-120.69
448.359	-208.69
448.486	-49.69
448.612	-224.69
448.739	-42.69
448.865	65.31
448.992	233.31
449.118	-219.69
449.245	-320.69
449.371	-284.69
449.498	-133.69
449.624	1.31
449.751	-121.69
449.877	-243.69
450.004	-100.69
450.13	-142.69
450.257	-295.69
450.383	-139.69
450.51	-393.69
450.636	-251.69
450.763	-213.69
450.889	-221.69
451.016	-435.69
451.142	-28.69
451.269	-242.69
451.395	277.31
451.521	-187.69
451.648	-261.69
451.774	-122.69
451.901	-380.69
452.027	-170.69
452.154	68.31
452.28	-167.69
452.406	-265.69
452.533	-254.69
452.659	-318.69
452.785	-187.69
452.912	-280.69
453.038	-331.69
453.165	-68.69
453.291	119.31
453.417	150.31
453.544	-303.69
453.67	-222.69
453.796	110.31
453.923	-301.69
454.049	-213.69
454.175	-247.69
454.302	-230.69
454.428	-20.69
454.554	-78.69
454.681	-260.69
454.807	-283.69
454.933	292.31
455.06	-108.69
455.186	-157.69
455.312	87.31
455.439	52.31
455.565	-321.69
455.691	-292.69
455.817	12.31
455.944	96.31
456.07	-161.69
456.196	-22.69
456.322	-385.69
456.449	-367.69
456.575	-141.69
456.701	-232.69
456.827	-273.69
456.954	-348.69
457.08	-270.69
457.206	-442.69
457.332	-121.69
457.459	-360.69
457.585	-281.69
457.711	-251.69
457.837	-56.69
457.963	-92.69
458.09	-293.69
458.216	-305.69
458.342	-168.69
458.468	-198.69
458.594	-152.69
458.721	-111.69
458.847	-132.69
458.973	-355.69
459.099	-208.69
459.225	-225.69
459.351	-192.69
459.477	-67.69
459.604	-303.69
459.73	-209.69
459.856	-309.69
459.982	-118.69
460.108	-395.69
460.234	-453.69
460.36	-196.69
460.486	-22.69
460.613	-307.69
460.739	80.31
460.865	-218.69
460.991	224.31
461.117	154.31
461.243	-295.69
461.369	-324.69
461.495	-237.69
461.621	-163.69
461.747	-65.69
461.873	-31.69
461.999	-276.69
462.125	-181.69
462.252	23.31
462.378	-100.69
462.504	-8.69
462.63	-88.69
462.756	-350.69
462.882	-212.69
463.008	-232.69
463.134	81.31
463.26	-362.69
463.386	-207.69
463.512	-97.69
463.638	-252.69
463.764	-335.69
463.89	-173.69
464.016	51.31
464.142	-53.69
464.268	-313.69
464.394	-219.69
464.52	-341.69
464.645	-96.69
464.771	37.31
464.897	-247.69
465.023	-260.69
465.149	-115.69
465.275	-332.69
465.401	-311.69
465.527	101.31
465.653	-138.69
465.779	74.31
465.905	-338.69
466.031	-103.69
466.157	-275.69
466.282	-226.69
466.408	-244.69
466.534	-140.69
466.66	-419.69
466.786	-190.69
466.912	-97.69
467.038	-142.69
467.164	-188.69
467.289	-228.69
467.415	-152.69
467.541	-163.69
467.667	-171.69
467.793	-213.69
467.919	-44.69
468.045	148.31
468.17	-288.69
468.296	-155.69
468.422	-192.69
468.548	46.31
468.674	-410.69
468.799	-268.69
468.925	-210.69
469.051	-316.69
469.177	-370.69
469.303	-394.69
469.428	-0.69
469.554	-270.69
469.68	-270.69
469.806	-80.69
469.931	-140.69
470.057	360.31
470.183	-501.69
470.309	-224.69
470.434	168.31
470.56	-158.69
470.686	-93.69
470.812	-160.69
470.937	-315.69
471.063	-280.69
471.189	-65.69
471.315	55.31
471.44	-131.69
471.566	-177.69
471.692	82.31
471.817	-279.69
471.943	-107.69
472.069	-29.69
472.194	-189.69
472.32	-240.69
472.446	-47.69
472.571	-285.69
472.697	-275.69
472.823	-132.69
472.948	-338.69
473.074	-125.69
473.2	-170.69
473.325	-353.69
473.451	-155.69
473.577	-176.69
473.702	-418.69
473.828	-197.69
473.953	-354.69
474.079	-114.69
474.205	-338.69
474.33	-332.69
474.456	-224.69
474.581	210.31
474.707	-247.69
474.833	-227.69
474.958	-37.69
475.084	-16.69
475.209	-246.69
475.335	-259.69
475.46	-80.69
475.586	-182.69
475.712	-60.69
475.837	-197.69
475.963	-248.69
476.088	-358.69
476.214	-255.69
476.339	-203.69
476.465	-248.69
476.59	-360.69
476.716	99.31
476.841	-324.69
476.967	200.31
477.092	-193.69
477.218	-111.69
477.343	-291.69
477.469	220.31
477.594	-241.69
477.72	-305.69
477.845	-105.69
477.971	-226.69
478.096	-97.69
478.222	-210.69
478.347	3312.31
478.472	12.31
478.598	-262.69
478.723	-235.69
478.849	-19.69
478.974	-57.69
479.1	-301.69
479.225	-105.69
479.35	-253.69
479.476	-42.69
479.601	-280.69
479.727	61.31
479.852	-255.69
479.977	-149.69
480.103	-170.69
480.228	181.31
480.354	-192.69
480.479	94.31
480.604	-232.69
480.73	-298.69
480.855	-440.69
480.98	56.31
481.106	-352.69
481.231	-361.69
481.356	-277.69
481.482	-405.69
481.607	-330.69
481.732	-478.69
481.858	-221.69
481.983	-327.69
482.108	-269.69
482.234	-372.69
482.359	-237.69
482.484	105.31
482.61	-302.69
482.735	-118.69
482.86	-368.69
482.985	-222.69
483.111	-192.69
483.236	-81.69
483.361	-240.69
483.486	-306.69
483.612	39.31
483.737	-425.69
483.862	-160.69
483.987	-76.69
484.113	-409.69
484.238	-74.69
484.363	-345.69
484.488	-238.69
484.614	-36.69
484.739	-211.69
484.864	46.31
484.989	443.31
485.114	-93.69
485.24	-186.69
485.365	-235.69
485.49	-405.69
485.615	5.31
485.74	-193.69
485.865	-82.69
485.991	-147.69
486.116	-75.69
486.241	-350.69
486.366	-351.69
486.491	-46.69
486.616	-267.69
486.742	-211.69
486.867	-182.69
486.992	-339.69
487.117	-292.69
487.242	-303.69
487.367	-425.69
487.492	-196.69
487.617	-31.69
487.742	-175.69
487.868	-305.69
487.993	-34.69
488.118	-91.69
488.243	-89.69
488.368	-253.69
488.493	-404.69
488.618	-250.69
488.743	-234.69
488.868	-280.69
488.993	-207.69
489.118	44.31
489.243	-157.69
489.368	-256.69
489.493	-7.69
489.618	-156.69
489.743	-295.69
489.868	-161.69
489.993	-243.69
490.118	-399.69
490.243	369.31
490.368	-215.69
490.493	-33.69
490.618	33.31
490.743	-411.69
490.868	-129.69
490.993	-143.69
491.118	-12.69
491.243	-309.69
491.368	-163.69
491.493	-21.69
491.618	-135.69
491.743	-186.69
491.868	-210.69
491.993	-226.69
492.118	-295.69
492.243	-116.69
492.368	-87.69
492.493	-255.69
492.618	112.31
492.743	-251.69
492.867	27.31
492.992	-167.69
493.117	-0.69
493.242	-267.69
493.367	-181.69
493.492	30.31
493.617	-253.69
493.742	74.31
493.867	-217.69
493.991	-376.69
494.116	-142.69
494.241	-136.69
494.366	-220.69
494.491	-54.69
494.616	62.31
494.74	-295.69
494.865	-347.69
494.99	-228.69
495.115	-208.69
495.24	-157.69
495.365	-214.69
495.489	-196.69
495.614	-105.69
495.739	-225.69
495.864	-259.69
495.989	-387.69
496.113	23.31
496.238	-129.69
496.363	-240.69
496.488	-332.69
496.612	53.31
496.737	-255.69
496.862	-221.69
496.987	-227.69
497.111	-306.69
497.236	-320.69
497.361	-316.69
497.486	84.31
497.61	16.31
497.735	-204.69
497.86	-37.69
497.984	-52.69
498.109	-386.69
498.234	-298.69
498.359	-269.69
498.483	-142.69
498.608	-159.69
498.733	-242.69
498.857	-337.69
498.982	-140.69
499.107	-381.69
499.231	-169.69
499.356	-229.69
499.481	115.31
499.605	-464.69
499.73	-339.69
499.855	31.31
499.979	-274.69
500.104	-193.69
500.228	161.31
500.353	-227.69
500.478	-326.69
500.602	-134.69
500.727	100.31
500.852	-62.69
500.976	-431.69
501.101	-259.69
501.225	115.31
501.35	-318.69
501.474	-287.69
501.599	-1.69
501.724	-210.69
501.848	-161.69
501.973	81.31
502.097	-353.69
502.222	-403.69
502.346	-6.69
502.471	-93.69
502.595	-261.69
502.72	-346.69
502.844	-322.69
502.969	-242.69
503.094	141.31
503.218	-377.69
503.343	-273.69
503.467	-295.69
503.592	-218.69
503.716	-257.69
503.841	-97.69
503.965	161.31
504.089	-198.69
504.214	-345.69
504.338	-211.69
504.463	5.31
504.587	-112.69
504.712	-143.69
504.836	-175.69
504.961	263.31
505.085	102.31
505.21	-255.69
505.334	-273.69
505.458	199.31
505.583	-355.69
505.707	-63.69
505.832	-249.69
505.956	-139.69
506.08	-285.69
506.205	-247.69
506.329	111.31
506.454	-349.69
506.578	-160.69
506.702	-296.69
506.827	137.31
506.951	-82.69
507.076	-195.69
507.2	-350.69
507.324	-17.69
507.449	81.31
507.573	-175.69
507.697	-242.69
507.822	-141.69
507.946	-203.69
508.07	-403.69
508.195	-184.69
508.319	-214.69
508.443	-138.69
508.567	-423.69
508.692	-334.69
508.816	-313.69
508.94	-176.69
509.065	-436.69
509.189	-75.69
509.313	-50.69
509.437	35.31
509.562	-219.69
509.686	-126.69
509.81	-217.69
509.935	-105.69
510.059	30.31
510.183	-302.69
510.307	-377.69
510.431	-20.69
510.556	-173.69
510.68	-288.69
510.804	-414.69
510.928	-164.69
511.053	-380.69
511.177	-365.69
511.301	-179.69
511.425	-276.69
511.549	-154.69
511.674	-147.69
511.798	-151.69
511.922	-107.69
512.046	167.31
512.17	-211.69
512.294	-349.69
512.419	-112.69
512.543	-63.69
512.667	-194.69
512.791	-314.69
512.915	-92.69
513.039	-213.69
513.163	-61.69
513.288	109.31
513.412	-249.69
513.536	62.31
513.66	-311.69
513.784	-195.69
513.908	-92.69
514.032	-138.69
514.156	16.31
514.28	-58.69
514.404	-172.69
514.528	-197.69
514.653	-31.69
514.777	5.31
514.901	-91.69
515.025	115.31
515.149	-217.69
515.273	-77.69
515.397	-217.69
515.521	-170.69
515.645	-213.69
515.769	-300.69
515.893	-247.69
516.017	-272.69
516.141	-396.69
516.265	-253.69
516.389	-259.69
516.513	-161.69
516.637	-286.69
516.761	-442.69
516.885	-262.69
517.009	-209.69
517.133	-85.69
517.257	-233.69
517.381	-25.69
517.505	-3.69
517.629	109.31
517.753	-206.69
517.877	-331.69
518.001	-219.69
518.125	-221.69
518.248	-35.69
518.372	-132.69
518.496	-355.69
518.62	-98.69
518.744	-195.69
518.868	-112.69
518.992	-158.69
519.116	-327.69
519.24	396.31
519.364	53.31
519.488	-160.69
519.611	-412.69
519.735	-205.69
519.859	-196.69
519.983	-37.69
520.107	-204.69
520.231	-5.69
520.355	-146.69
520.478	-301.69
520.602	-337.69
520.726	77.31
520.85	-213.69
520.974	-9.69
521.098	-273.69
521.221	-344.69
521.345	79.31
521.469	-267.69
521.593	-187.69
521.717	56.31
521.84	-168.69
521.964	-308.69
522.088	-241.69
522.212	-182.69
522.335	-387.69
522.459	-280.69
522.583	210.31
522.707	-359.69
522.83	-438.69
522.954	-324.69
523.078	-271.69
523.202	-11.69
523.325	-214.69
523.449	-130.69
523.573	-148.69
523.697	-299.69
523.82	-186.69
523.944	-193.69
524.068	-181.69
524.191	-208.69
524.315	-411.69
524.439	-147.69
524.562	-22.69
524.686	-255.69
524.81	-292.69
524.933	-250.69
525.057	-232.69
525.181	-99.69
525.304	-375.69
525.428	109.31
525.552	-358.69
525.675	-155.69
525.799	-259.69
525.923	-110.69
526.046	-14.69
526.17	-397.69
526.293	-369.69
526.417	-133.69
526.541	-7.69
526.664	-237.69
526.788	-268.69
526.911	-74.69
527.035	-313.69
527.159	-233.69
527.282	-236.69
527.406	-280.69
527.529	-41.69
527.653	-338.69
527.776	-104.69
527.9	-282.69
528.024	-277.69
528.147	-245.69
528.271	68.31
528.394	13.31
528.518	1.31
528.641	-363.69
528.765	-129.69
528.888	-146.69
529.012	-93.69
529.135	-245.69
529.259	93.31
529.382	-227.69
529.506	-297.69
529.629	-78.69
529.753	-377.69
529.876	109.31
530	43.31
530.123	-117.69
530.247	-328.69
530.37	-221.69
530.493	-130.69
530.617	-284.69
530.74	36.31
530.864	-41.69
530.987	-391.69
531.111	-71.69
531.234	-289.69
531.357	51.31
531.481	7.31
531.604	37.31
531.728	-384.69
531.851	-99.69
531.974	-88.69
532.098	-277.69
532.221	-284.69
532.345	-196.69
532.468	-361.69
532.591	160.31
532.715	-174.69
532.838	-221.69
532.961	-217.69
533.085	-307.69
533.208	-136.69
533.331	-368.69
533.455	-47.69
533.578	-193.69
533.701	-90.69
533.825	45.31
533.948	-259.69
534.071	-221.69
534.195	-69.69
534.318	-342.69
534.441	-282.69
534.564	-54.69
534.688	-268.69
534.811	-11.69
534.934	-207.69
535.058	-109.69
535.181	61.31
535.304	-1.69
535.427	-293.69
535.551	-406.69
535.674	-222.69
535.797	-55.69
535.92	-29.69
536.043	-344.69
536.167	-346.69
536.29	-59.69
536.413	-138.69
536.536	-323.69
536.66	-263.69
536.783	-99.69
536.906	-154.69
537.029	-287.69
537.152	-246.69
537.275	-195.69
537.399	131.31
537.522	-447.69
537.645	-232.69
537.768	-225.69
537.891	-107.69
538.014	-194.69
538.138	-290.69
538.261	-235.69
538.384	-163.69
538.507	-340.69
538.63	-238.69
538.753	112.31
538.876	-89.69
538.999	-336.69
539.123	-56.69
539.246	174.31
539.369	248.31
539.492	-258.69
539.615	-353.69
539.738	201.31
539.861	-246.69
539.984	-182.69
540.107	-130.69
540.23	-257.69
540.353	-303.69
540.476	-472.69
540.599	-54.69
540.722	-333.69
540.846	-129.69
540.969	-434.69
541.092	-137.69
541.215	-334.69
541.338	-134.69
541.461	-319.69
541.584	-168.69
541.707	-187.69
541.83	-252.69
541.953	-126.69
542.076	-98.69
542.199	-157.69
542.322	68.31
542.445	153.31
542.567	-244.69
542.69	-120.69
542.813	-253.69
542.936	-84.69
543.059	-151.69
543.182	250.31
543.305	74.31
543.428	-126.69
543.551	-200.69
543.674	106.31
543.797	-33.69
543.92	-216.69
544.043	274.31
544.166	-293.69
544.288	-203.69
544.411	-60.69
544.534	-321.69
544.657	-149.69
544.78	-231.69
544.903	-85.69
545.026	-187.69
545.149	-320.69
545.271	-336.69
545.394	-254.69
545.517	-364.69
545.64	393.31
545.763	-201.69
545.886	-247.69
546.008	-117.69
546.131	12.31
546.254	-197.69
546.377	-389.69
546.5	-74.69
546.623	-32.69
546.745	-324.69
546.868	-220.69
546.991	49.31
547.114	-153.69
547.236	-178.69
547.359	-300.69
547.482	-116.69
547.605	-281.69
547.728	-224.69
547.85	-335.69
547.973	-299.69
548.096	-205.69
548.219	-79.69
548.341	-195.69
548.464	-366.69
548.587	-173.69
548.709	-223.69
548.832	-154.69
548.955	238.31
549.078	1.31
549.2	-253.69
549.323	-236.69
549.446	177.31
549.568	-149.69
549.691	-84.69
549.814	-13.69
549.936	-265.69
550.059	-207.69
550.182	-328.69
550.304	-409.69
550.427	-160.69
550.55	-242.69
550.672	-296.69
550.795	297.31
550.917	-292.69
551.04	-198.69
551.163	-105.69
551.285	92.31
551.408	28.31
551.531	331.31
551.653	-347.69
551.776	-105.69
551.898	-96.69
552.021	-131.69
552.143	-172.69
552.266	-171.69
552.389	-193.69
552.511	-345.69
552.634	-377.69
552.756	-299.69
552.879	236.31
553.001	14.31
553.124	-394.69
553.246	-293.69
553.369	79.31
553.492	-171.69
553.614	17.31
553.737	-462.69
553.859	-15.69
553.982	13.31
554.104	-113.69
554.227	-320.69
554.349	-178.69
554.472	-177.69
554.594	-441.69
554.716	49.31
554.839	-15.69
554.961	-107.69
555.084	-347.69
555.206	-145.69
555.329	-389.69
555.451	-341.69
555.574	-90.69
555.696	-323.69
555.819	-161.69
555.941	-186.69
556.063	-23.69
556.186	-184.69
556.308	-115.69
556.431	206.31
556.553	-30.69
556.675	-271.69
556.798	-204.69
556.92	-30.69
557.043	-257.69
557.165	-374.69
557.287	30.31
557.41	-198.69
557.532	-155.69
557.654	-206.69
557.777	35.31
557.899	-171.69
558.021	-191.69
558.144	67.31
558.266	50.31
558.388	267.31
558.511	-222.69
558.633	-162.69
558.755	-231.69
558.878	-290.69
559	-27.69
559.122	-414.69
559.244	-263.69
559.367	-178.69
559.489	45.31
559.611	145.31
559.734	-145.69
559.856	-144.69
559.978	-164.69
560.1	-167.69
560.223	-168.69
560.345	73.31
560.467	-351.69
560.589	-198.69
560.712	-194.69
560.834	193.31
560.956	-302.69
561.078	-198.69
561.2	-115.69
561.323	67.31
561.445	-365.69
561.567	-258.69
561.689	-315.69
561.811	-37.69
561.934	-210.69
562.056	-209.69
562.178	-65.69
562.3	-207.69
562.422	-47.69
562.544	-171.69
562.666	22.31
562.789	-103.69
562.911	-126.69
563.033	-15.69
563.155	-15.69
563.277	-244.69
563.399	-423.69
563.521	-223.69
563.643	-282.69
563.766	-166.69
563.888	16.31
564.01	-105.69
564.132	-314.69
564.254	-381.69
564.376	95.31
564.498	-134.69
564.62	160.31
564.742	-132.69
564.864	-388.69
564.986	-119.69
565.108	263.31
565.23	-261.69
565.352	-10.69
565.474	-98.69
565.597	167.31
565.719	123.31
565.841	-340.69
565.963	-108.69
566.085	-113.69
566.207	-173.69
566.329	40.31
566.451	44.31
566.573	-179.69
566.695	-206.69
566.817	161.31
566.938	-321.69
567.06	-168.69
567.182	-88.69
567.304	-201.69
567.426	-338.69
567.548	45.31
567.67	-109.69
567.792	-175.69
567.914	-285.69
568.036	-173.69
568.158	-103.69
568.28	-304.69
568.402	-72.69
568.524	-190.69
568.646	-299.69
568.767	-216.69
568.889	22.31
569.011	-170.69
569.133	-241.69
569.255	-372.69
569.377	-354.69
569.499	-114.69
569.621	-234.69
569.742	186.31
569.864	26.31
569.986	290.31
570.108	-5.69
570.23	-344.69
570.352	42.31
570.473	-92.69
570.595	-186.69
570.717	-354.69
570.839	-112.69
570.961	-19.69
571.082	-187.69
571.204	-276.69
571.326	-263.69
571.448	27.31
571.57	27.31
571.691	-129.69
571.813	-115.69
571.935	24.31
572.057	-145.69
572.178	-289.69
572.3	101.31
572.422	145.31
572.544	182.31
572.665	-261.69
572.787	-298.69
572.909	126.31
573.031	-12.69
573.152	-326.69
573.274	-26.69
573.396	-3.69
573.517	-29.69
573.639	-423.69
573.761	-286.69
573.882	-144.69
574.004	3.31
574.126	-319.69
574.247	-9.69
574.369	-12.69
574.491	-139.69
574.612	-294.69
574.734	-168.69
574.856	-101.69
574.977	-33.69
575.099	-105.69
575.221	-148.69
575.342	-175.69
575.464	-117.69
575.585	-48.69
575.707	-281.69
575.829	111.31
575.95	59.31
576.072	-225.69
576.193	-279.69
576.315	-205.69
576.437	-178.69
576.558	-191.69
576.68	-173.69
576.801	247.31
576.923	-317.69
577.044	71.31
577.166	-386.69
577.287	-145.69
577.409	-212.69
577.531	-186.69
577.652	-56.69
577.774	-368.69
577.895	-126.69
578.017	-291.69
578.138	-257.69
578.26	-158.69
578.381	-55.69
578.503	-272.69
578.624	-275.69
578.746	-359.69
578.867	-207.69
578.988	-126.69
579.11	145.31
579.231	-74.69
579.353	-195.69
579.474	-177.69
579.596	-221.69
579.717	27.31
579.839	-124.69
579.96	-423.69
580.081	-46.69
580.203	-164.69
580.324	-110.69
580.446	-33.69
580.567	-141.69
580.688	179.31
580.81	-281.69
580.931	-207.69
581.053	-384.69
581.174	-150.69
581.295	-214.69
581.417	-66.69
581.538	-25.69
581.659	-33.69
581.781	-125.69
581.902	-244.69
582.024	-311.69
582.145	-290.69
582.266	-261.69
582.388	-161.69
582.509	-364.69
582.63	-132.69
582.751	-202.69
582.873	-199.69
582.994	-201.69
583.115	-163.69
583.237	-91.69
583.358	-268.69
583.479	-399.69
583.6	27.31
583.722	-168.69
583.843	-344.69
583.964	87.31
584.086	-218.69
584.207	-53.69
584.328	-329.69
584.449	-71.69
584.57	-124.69
584.692	-136.69
584.813	822.31
584.934	-129.69
585.055	-264.69
585.177	-28.69
585.298	-117.69
585.419	-336.69
585.54	184.31
585.661	-32.69
585.783	-118.69
585.904	-291.69
586.025	103.31
586.146	-284.69
586.267	-264.69
586.388	-180.69
586.51	289.31
586.631	-296.69
586.752	-347.69
586.873	-231.69
586.994	-349.69
587.115	-299.69
587.236	-263.69
587.357	-396.69
587.479	-274.69
587.6	11.31
587.721	-231.69
587.842	-270.69
587.963	128.31
588.084	101.31
588.205	-305.69
588.326	-231.69
588.447	-143.69
588.568	-158.69
588.689	-125.69
588.81	-57.69
588.931	-194.69
589.052	-229.69
589.174	-270.69
589.295	-124.69
589.416	-85.69
589.537	36.31
589.658	-246.69
589.779	-376.69
589.9	63.31
590.021	-218.69
590.142	-248.69
590.263	-400.69
590.384	-140.69
590.505	221.31
590.626	-302.69
590.747	-128.69
590.867	-25.69
590.988	-61.69
591.109	-210.69
591.23	47.31
591.351	-0.69
591.472	-115.69
591.593	-201.69
591.714	-129.69
591.835	-213.69
591.956	-211.69
592.077	-365.69
592.198	-185.69
592.319	-93.69
592.44	14.31
592.56	-257.69
592.681	-368.69
592.802	-84.69
592.923	-135.69
593.044	-295.69
593.165	-294.69
593.286	-37.69
593.407	-287.69
593.527	34.31
593.648	-302.69
593.769	-41.69
593.89	115.31
594.011	-145.69
594.132	-254.69
594.252	-93.69
594.373	-290.69
594.494	-386.69
594.615	-223.69
594.736	-235.69
594.856	62.31
594.977	-322.69
595.098	-91.69
595.219	-284.69
595.34	-97.69
595.46	-338.69
595.581	185.31
595.702	-149.69
595.823	-331.69
595.943	-93.69
596.064	-174.69
596.185	111.31
596.306	-400.69
596.426	-311.69
596.547	-346.69
596.668	-73.69
596.788	-92.69
596.909	-148.69
597.03	-117.69
597.151	-132.69
597.271	-265.69
597.392	-198.69
597.513	-89.69
597.633	22.31
597.754	-97.69
597.875	-179.69
597.995	83.31
598.116	-138.69
598.237	-208.69
598.357	-282.69
598.478	-278.69
598.599	205.31
598.719	-152.69
598.84	-349.69
598.96	-253.69
599.081	-154.69
599.202	-179.69
599.322	-306.69
599.443	-314.69
599.563	-35.69
599.684	54.31
599.805	-218.69
599.925	-357.69
600.046	209.31
600.166	-185.69
600.287	-93.69
600.407	-153.69
600.528	49.31
600.649	-52.69
600.769	-165.69
600.89	-337.69
601.01	-25.69
601.131	-228.69
601.251	145.31
601.372	-130.69
601.492	-234.69
601.613	-269.69
601.733	-268.69
601.854	220.31
601.974	359.31
602.095	155.31
602.215	-356.69
602.336	-333.69
602.456	247.31
602.577	-235.69
602.697	679.31
602.817	-13.69
602.938	-95.69
603.058	-66.69
603.179	-344.69
603.299	-293.69
603.42	-328.69
603.54	-41.69
603.66	-327.69
603.781	-114.69
603.901	-214.69
604.022	75.31
604.142	-191.69
604.262	-146.69
604.383	-271.69
604.503	131.31
604.624	-301.69
604.744	-99.69
604.864	-17.69
604.985	-201.69
605.105	-113.69
605.225	-134.69
605.346	-133.69
605.466	-22.69
605.586	192.31
605.707	281.31
605.827	-305.69
605.947	-146.69
606.068	-203.69
606.188	-206.69
606.308	-251.69
606.429	66.31
606.549	-235.69
606.669	-371.69
606.789	-281.69
606.91	-9.69
607.03	-296.69
607.15	-228.69
607.27	-97.69
607.391	9.31
607.511	-279.69
607.631	-285.69
607.751	182.31
607.872	8.31
607.992	-329.69
608.112	14.31
608.232	-212.69
608.353	-282.69
608.473	-246.69
608.593	122.31
608.713	292.31
608.833	-105.69
608.954	-258.69
609.074	-226.69
609.194	-291.69
609.314	235.31
609.434	-22.69
609.554	-150.69
609.675	49.31
609.795	-233.69
609.915	-301.69
610.035	277.31
610.155	-185.69
610.275	-201.69
610.395	-33.69
610.516	-348.69
610.636	-95.69
610.756	-30.69
610.876	-57.69
610.996	-273.69
611.116	180.31
611.236	-326.69
611.356	-246.69
611.476	-152.69
611.596	-113.69
611.716	104.31
611.836	-301.69
611.957	-305.69
612.077	-104.69
612.197	-52.69
612.317	-282.69
612.437	70.31
612.557	98.31
612.677	-159.69
612.797	-155.69
612.917	-349.69
613.037	-39.69
613.157	-117.69
613.277	-117.69
613.397	107.31
613.517	110.31
613.637	-221.69
613.757	-154.69
613.877	-250.69
613.997	-90.69
614.117	-223.69
614.237	-213.69
614.356	-93.69
614.476	81.31
614.596	50.31
614.716	-167.69
614.836	-165.69
614.956	-9.69
615.076	-92.69
615.196	-296.69
615.316	-108.69
615.436	-40.69
615.556	136.31
615.676	194.31
615.795	-59.69
615.915	-80.69
616.035	-206.69
616.155	-161.69
616.275	-285.69
616.395	-187.69
616.515	18.31
616.635	-400.69
616.754	-433.69
616.874	-12.69
616.994	-113.69
617.114	266.31
617.234	45.31
617.354	74.31
617.473	346.31
617.593	-189.69
617.713	-120.69
617.833	-34.69
617.953	-69.69
618.072	-449.69
618.192	-267.69
618.312	79.31
618.432	48.31
618.551	-285.69
618.671	-258.69
618.791	-6.69
618.911	-94.69
619.03	-201.69
619.15	-108.69
619.27	-169.69
619.39	-230.69
619.509	-157.69
619.629	-202.69
619.749	-276.69
619.868	-76.69
619.988	-373.69
620.108	-217.69
620.228	726.31
620.347	-86.69
620.467	-295.69
620.587	-300.69
620.706	74.31
620.826	-248.69
620.946	-299.69
621.065	-12.69
621.185	272.31
621.305	-230.69
621.424	-206.69
621.544	-400.69
621.663	-22.69
621.783	-171.69
621.903	192.31
622.022	-268.69
622.142	-110.69
622.261	168.31
622.381	-117.69
622.501	-58.69
622.62	-162.69
622.74	-101.69
622.859	-213.69
622.979	86.31
623.099	-197.69
623.218	-48.69
623.338	119.31
623.457	-70.69
623.577	-218.69
623.696	-82.69
623.816	-369.69
623.935	-287.69
624.055	-250.69
624.174	-151.69
624.294	-150.69
624.413	-352.69
624.533	-46.69
624.652	128.31
624.772	-254.69
624.891	-385.69
625.011	34.31
625.13	-192.69
625.25	-327.69
625.369	-232.69
625.489	-159.69
625.608	-269.69
625.728	-158.69
625.847	-127.69
625.966	-260.69
626.086	-241.69
626.205	-342.69
626.325	-102.69
626.444	-121.69
626.564	160.31
626.683	-21.69
626.802	17.31
626.922	131.31
627.041	-17.69
627.161	-170.69
627.28	2.31
627.399	29.31
627.519	-68.69
627.638	-382.69
627.757	-289.69
627.877	-151.69
627.996	-176.69
628.115	-40.69
628.235	-45.69
628.354	-314.69
628.473	-112.69
628.593	81.31
628.712	-104.69
628.831	-115.69
628.951	-336.69
629.07	64.31
629.189	-109.69
629.309	-147.69
629.428	211.31
629.547	-333.69
629.666	-18.69
629.786	-102.69
629.905	-291.69
630.024	-25.69
630.143	-76.69
630.263	-145.69
630.382	253.31
630.501	-213.69
630.62	-260.69
630.74	-282.69
630.859	117.31
630.978	-180.69
631.097	-335.69
631.216	-251.69
631.336	183.31
631.455	-256.69
631.574	-212.69
631.693	-9.69
631.812	-159.69
631.932	-416.69
632.051	91.31
632.17	241.31
632.289	31.31
632.408	-231.69
632.527	-121.69
632.646	-97.69
632.766	-229.69
632.885	155.31
633.004	-354.69
633.123	-110.69
633.242	-258.69
633.361	637.31
633.48	-264.69
633.599	-204.69
633.718	79.31
633.838	-77.69
633.957	-370.69
634.076	-69.69
634.195	-158.69
634.314	-19.69
634.433	-12.69
634.552	-191.69
634.671	-65.69
634.79	195.31
634.909	46.31
635.028	-48.69
635.147	-3.69
635.266	-311.69
635.385	-107.69
635.504	-292.69
635.623	-14.69
635.742	-352.69
635.861	-359.69
635.98	-76.69
636.099	-208.69
636.218	-153.69
636.337	-125.69
636.456	291.31
636.575	25.31
636.694	-115.69
636.813	-324.69
636.932	-299.69
637.051	-67.69
637.17	-389.69
637.289	-95.69
637.408	-313.69
637.526	-82.69
637.645	-441.69
637.764	-340.69
637.883	-198.69
638.002	38.31
638.121	338.31
638.24	-288.69
638.359	47.31
638.478	-208.69
638.597	-307.69
638.715	387.31
638.834	-125.69
638.953	27.31
639.072	-347.69
639.191	-377.69
639.31	44.31
639.428	-95.69
639.547	-111.69
639.666	-13.69
639.785	-12.69
639.904	-82.69
640.023	-363.69
640.141	-215.69
640.26	-153.69
640.379	5.31
640.498	-370.69
640.616	-115.69
640.735	-111.69
640.854	73.31
640.973	-321.69
641.092	-3.69
641.21	-42.69
641.329	-144.69
641.448	-9.69
641.567	223.31
641.685	-125.69
641.804	-129.69
641.923	-145.69
642.041	-282.69
642.16	-172.69
642.279	97.31
642.398	-210.69
642.516	-272.69
642.635	146.31
642.754	-161.69
642.872	16.31
642.991	86.31
643.11	-218.69
643.228	-276.69
643.347	-353.69
643.466	-367.69
643.584	50.31
643.703	257.31
643.821	-144.69
643.94	-106.69
644.059	-46.69
644.177	63.31
644.296	-321.69
644.415	-240.69
644.533	-95.69
644.652	24.31
644.77	-394.69
644.889	-314.69
645.008	26.31
645.126	-231.69
645.245	-46.69
645.363	4.31
645.482	-72.69
645.6	-130.69
645.719	-188.69
645.837	-211.69
645.956	-42.69
646.074	-257.69
646.193	-285.69
646.312	11.31
646.43	155.31
646.549	266.31
646.667	-464.69
646.786	-335.69
646.904	61.31
647.023	-3.69
647.141	-312.69
647.26	-25.69
647.378	450.31
647.496	-143.69
647.615	-82.69
647.733	-95.69
647.852	240.31
647.97	-220.69
648.089	12.31
648.207	-29.69
648.326	93.31
648.444	-121.69
648.562	-165.69
648.681	-56.69
648.799	-149.69
648.918	-74.69
649.036	-121.69
649.154	-248.69
649.273	94.31
649.391	-119.69
649.51	-280.69
649.628	-336.69
649.746	214.31
649.865	-205.69
649.983	-310.69
650.101	-120.69
650.22	-107.69
650.338	-203.69
650.456	-210.69
650.575	-223.69
650.693	-289.69
650.811	-3.69
650.93	-375.69
651.048	1065.31
651.166	335.31
651.285	-97.69
651.403	-24.69
651.521	-127.69
651.639	-113.69
651.758	-110.69
651.876	221.31
651.994	-320.69
652.112	133.31
652.231	-96.69
652.349	-280.69
652.467	-457.69
652.585	-90.69
652.704	25.31
652.822	-392.69
652.94	-354.69
653.058	-27.69
653.176	-182.69
653.295	-151.69
653.413	-15.69
653.531	-213.69
653.649	-133.69
653.767	-312.69
653.886	-312.69
654.004	-225.69
654.122	159.31
654.24	-370.69
654.358	-308.69
654.476	-115.69
654.594	174.31
654.713	-229.69
654.831	-395.69
654.949	-139.69
655.067	-5.69
655.185	-355.69
655.303	-259.69
655.421	-146.69
655.539	138.31
655.658	-157.69
655.776	-196.69
655.894	7.31
656.012	168.31
656.13	-382.69
656.248	-238.69
656.366	-245.69
656.484	-168.69
656.602	-328.69
656.72	-299.69
656.838	-42.69
656.956	-159.69
657.074	-63.69
657.192	-99.69
657.31	-254.69
657.428	-119.69
657.546	-89.69
657.664	-106.69
657.782	-117.69
657.9	140.31
658.018	-247.69
658.136	-158.69
658.254	67.31
658.372	153.31
658.49	-314.69
658.608	-313.69
658.726	-15.69
658.844	-5.69
658.962	-279.69
659.08	-371.69
659.198	-24.69
659.316	-101.69
